Time,TP9,AF7,AF8,TP10,ABS(TP)SUM,ABS(AF)SUM,ABS_SUM,Non-ClenchedTeeth
1627069777648.4,-289.06,-27.34,-21.0,-116.21,405.27,48.34,453.60999999999996,True
1627069777652.31,17.58,-26.37,-18.55,-98.14,115.72,44.92,160.64000000000001,True
1627069777656.21,235.84,-33.2,-29.79,-68.36,304.2,62.99,367.19,True
1627069777660.12,-26.37,-29.3,-34.18,-99.61,125.98,63.480000000000004,189.46,True
1627069777664.03,-298.83,-24.9,-30.76,-121.58,420.40999999999997,55.66,476.06999999999994,True
1627069777667.93,-92.29,-28.32,-27.83,-90.33,182.62,56.15,238.76999999999998,True
1627069777671.84,226.07,-28.32,-28.81,-57.13,283.2,57.129999999999995,340.33,True
1627069777675.75,82.03,-18.55,-15.14,-81.05,163.07999999999998,33.69,196.76999999999998,True
1627069777679.65,-251.95,-22.46,-24.41,-107.91,359.86,46.870000000000005,406.73,True
1627069777683.56,-169.92,-25.88,-35.16,-82.03,251.95,61.03999999999999,312.99,True
1627069777687.46,175.29,-21.97,-23.44,-57.62,232.91,45.41,278.32,True
1627069777691.37,156.25,-25.39,-28.32,-81.05,237.3,53.71,291.01,True
1627069777695.28,-194.82,-30.76,-46.39,-113.28,308.1,77.15,385.25,True
1627069777699.18,-258.3,-35.64,-53.71,-103.52,361.82,89.35,451.16999999999996,True
1627069777703.09,76.17,-30.27,-34.67,-70.31,146.48000000000002,64.94,211.42000000000002,True
1627069777707.0,206.54,-24.9,-21.0,-66.89,273.43,45.9,319.33,True
1627069777710.9,-118.16,-40.04,-37.11,-97.17,215.32999999999998,77.15,292.47999999999996,True
1627069777714.81,-309.57,-46.39,-58.11,-107.91,417.48,104.5,521.98,True
1627069777718.71,-18.55,-40.53,-56.15,-75.68,94.23,96.68,190.91,True
1627069777722.62,226.56,-29.79,-33.2,-78.61,305.17,62.99,368.16,True
1627069777726.53,-12.7,-26.37,-40.04,-118.16,130.85999999999999,66.41,197.26999999999998,True
1627069777730.43,-306.64,-34.18,-57.62,-124.02,430.65999999999997,91.8,522.4599999999999,True
1627069777734.34,-132.32,-31.25,-51.27,-104.98,237.3,82.52000000000001,319.82,True
1627069777738.25,188.96,-24.41,-34.18,-88.87,277.83000000000004,58.59,336.4200000000001,True
1627069777742.15,67.38,-30.27,-34.18,-97.66,165.04,64.45,229.49,True
1627069777746.06,-284.67,-41.02,-54.2,-119.63,404.3,95.22,499.52,True
1627069777749.96,-250.0,-40.53,-53.71,-115.72,365.72,94.24000000000001,459.96,True
1627069777753.87,108.4,-29.79,-38.09,-91.8,200.2,67.88,268.08,True
1627069777757.78,139.16,-32.23,-49.8,-86.91,226.07,82.03,308.1,True
1627069777761.68,-212.89,-48.34,-73.24,-96.19,309.08,121.58,430.65999999999997,True
1627069777765.59,-311.52,-43.46,-49.8,-99.12,410.64,93.25999999999999,503.9,True
1627069777769.5,28.32,-25.39,-24.41,-85.94,114.25999999999999,49.8,164.05999999999997,True
1627069777773.4,191.41,-26.37,-26.86,-76.17,267.58,53.230000000000004,320.81,True
1627069777777.31,-125.0,-37.11,-37.6,-101.56,226.56,74.71000000000001,301.27000000000004,True
1627069777781.21,-347.17,-32.71,-47.36,-119.63,466.8,80.07,546.87,True
1627069777785.12,-79.1,-27.34,-41.5,-92.77,171.87,68.84,240.71,True
1627069777789.03,199.22,-28.32,-36.62,-71.78,271.0,64.94,335.94,True
1627069777792.93,-11.72,-31.25,-44.92,-94.24,105.96,76.17,182.13,True
1627069777796.84,-331.05,-36.62,-50.29,-109.86,440.91,86.91,527.82,True
1627069777800.75,-193.85,-37.11,-42.97,-88.87,282.72,80.08,362.80000000000007,True
1627069777804.65,149.41,-36.62,-44.43,-58.59,208.0,81.05,289.05,True
1627069777808.56,75.2,-39.06,-48.83,-66.89,142.09,87.89,229.98000000000002,True
1627069777812.46,-271.48,-37.11,-44.92,-99.12,370.6,82.03,452.63000000000005,True
1627069777816.37,-268.07,-38.57,-50.78,-88.38,356.45,89.35,445.79999999999995,True
1627069777820.28,83.5,-31.74,-39.55,-61.52,145.02,71.28999999999999,216.31,True
1627069777824.18,148.93,-22.46,-18.55,-65.92,214.85000000000002,41.010000000000005,255.86000000000004,True
1627069777828.09,-190.43,-30.27,-30.76,-105.47,295.9,61.03,356.92999999999995,True
1627069777832.0,-317.38,-41.02,-45.41,-115.23,432.61,86.43,519.04,True
1627069777835.9,6.35,-39.55,-36.13,-76.66,83.00999999999999,75.68,158.69,True
1627069777839.81,202.15,-35.64,-26.37,-64.94,267.09000000000003,62.010000000000005,329.1,True
1627069777843.71,-81.05,-36.62,-34.67,-97.17,178.22,71.28999999999999,249.51,True
1627069777847.62,-322.27,-42.48,-44.43,-107.42,429.69,86.91,516.6,True
1627069777851.53,-87.89,-41.5,-40.04,-76.66,164.55,81.53999999999999,246.09,True
1627069777855.43,203.13,-32.23,-18.07,-63.48,266.61,50.3,316.91,True
1627069777859.34,12.21,-31.74,-18.07,-95.21,107.41999999999999,49.81,157.23,True
1627069777863.25,-317.87,-39.55,-39.55,-121.58,439.45,79.1,518.55,True
1627069777867.15,-202.64,-41.02,-44.43,-90.82,293.46,85.45,378.90999999999997,True
1627069777871.06,121.09,-33.69,-24.41,-75.2,196.29000000000002,58.099999999999994,254.39000000000001,True
1627069777874.96,92.29,-37.6,-22.46,-89.36,181.65,60.06,241.71,True
1627069777878.87,-244.14,-49.32,-33.69,-108.89,353.03,83.00999999999999,436.03999999999996,True
1627069777882.78,-278.81,-45.9,-29.79,-108.89,387.7,75.69,463.39,True
1627069777886.68,78.61,-34.18,-26.37,-86.91,165.51999999999998,60.55,226.07,True
1627069777890.59,177.25,-34.67,-32.71,-85.45,262.7,67.38,330.08,True
1627069777894.5,-160.16,-47.36,-46.88,-108.4,268.56,94.24000000000001,362.8,True
1627069777898.4,-318.85,-45.9,-51.76,-109.86,428.71000000000004,97.66,526.37,True
1627069777902.31,-7.81,-37.11,-36.13,-80.57,88.38,73.24000000000001,161.62,True
1627069777906.21,226.07,-32.71,-26.86,-64.94,291.01,59.57,350.58,True
1627069777910.12,-26.37,-37.11,-46.88,-77.15,103.52000000000001,83.99000000000001,187.51,True
1627069777914.03,-299.32,-42.97,-49.8,-83.5,382.82,92.77,475.59,True
1627069777917.93,-101.07,-34.67,-27.83,-73.24,174.31,62.5,236.81,True
1627069777921.84,201.17,-32.71,-29.3,-63.96,265.13,62.010000000000005,327.14,True
1627069777925.75,47.36,-39.55,-45.41,-72.27,119.63,84.96,204.59,True
1627069777929.65,-277.34,-42.48,-43.95,-89.84,367.17999999999995,86.43,453.60999999999996,True
1627069777933.56,-202.64,-44.43,-41.99,-85.94,288.58,86.42,375.0,True
1627069777937.46,146.0,-41.99,-37.6,-58.11,204.11,79.59,283.70000000000005,True
1627069777941.37,145.51,-43.95,-41.02,-61.52,207.03,84.97,292.0,True
1627069777945.28,-198.73,-42.48,-48.83,-100.59,299.32,91.31,390.63,True
1627069777949.18,-257.32,-42.48,-43.46,-105.96,363.28,85.94,449.21999999999997,True
1627069777953.09,77.64,-44.92,-35.16,-71.29,148.93,80.08,229.01000000000002,True
1627069777957.0,214.36,-42.48,-41.02,-50.78,265.14,83.5,348.64,True
1627069777960.9,-92.29,-33.2,-44.92,-84.47,176.76,78.12,254.88,True
1627069777964.81,-280.27,-39.06,-51.27,-104.49,384.76,90.33000000000001,475.09,True
1627069777968.71,-0.98,-41.02,-51.76,-70.31,71.29,92.78,164.07,True
1627069777972.62,244.14,-33.69,-39.06,-51.27,295.40999999999997,72.75,368.15999999999997,True
1627069777976.53,11.72,-35.16,-41.02,-65.92,77.64,76.18,153.82,True
1627069777980.43,-266.6,-36.62,-40.04,-80.08,346.68,76.66,423.34000000000003,True
1627069777984.34,-92.29,-38.09,-32.71,-61.52,153.81,70.80000000000001,224.61,True
1627069777988.25,225.59,-28.81,-32.71,-34.67,260.26,61.519999999999996,321.78,True
1627069777992.15,118.65,-27.83,-37.6,-58.11,176.76,65.43,242.18999999999997,True
1627069777996.06,-223.63,-37.6,-47.36,-94.24,317.87,84.96000000000001,402.83000000000004,True
1627069777999.96,-174.8,-36.13,-47.85,-74.71,249.51,83.98,333.49,True
1627069778003.87,179.2,-35.64,-39.06,-27.34,206.54,74.7,281.24,True
1627069778007.78,201.17,-27.34,-23.93,-49.32,250.48999999999998,51.269999999999996,301.76,True
1627069778011.68,-146.97,-30.27,-30.76,-94.24,241.20999999999998,61.03,302.23999999999995,True
1627069778015.59,-247.56,-38.09,-40.53,-93.75,341.31,78.62,419.92999999999995,True
1627069778019.5,76.17,-32.23,-20.51,-62.5,138.67000000000002,52.739999999999995,191.41,True
1627069778023.4,243.65,-31.25,-14.16,-44.43,288.08,45.41,333.49,True
1627069778027.31,-57.13,-37.6,-28.81,-71.78,128.91,66.41,195.32,True
1627069778031.21,-273.44,-33.69,-33.69,-80.08,353.52,67.38,420.9,True
1627069778035.12,-14.16,-30.76,-19.53,-45.41,59.56999999999999,50.290000000000006,109.86,True
1627069778039.03,248.54,-33.2,-18.07,-31.74,280.28,51.27,331.54999999999995,True
1627069778042.93,44.43,-33.69,-36.13,-46.39,90.82,69.82,160.64,True
1627069778046.84,-260.25,-32.71,-47.36,-62.01,322.26,80.07,402.33,True
1627069778050.75,-123.05,-26.86,-35.16,-63.96,187.01,62.019999999999996,249.03,True
1627069778054.65,207.52,-23.93,-27.34,-55.18,262.7,51.269999999999996,313.96999999999997,True
1627069778058.56,136.72,-24.9,-46.39,-62.01,198.73,71.28999999999999,270.02,True
1627069778062.46,-204.59,-35.16,-64.94,-75.68,280.27,100.1,380.36999999999995,True
1627069778066.37,-204.1,-21.48,-54.2,-78.13,282.23,75.68,357.91,True
1627069778070.28,137.21,-12.21,-44.92,-62.01,199.22,57.13,256.35,True
1627069778074.18,195.8,-23.44,-47.85,-54.2,250.0,71.29,321.29,True
1627069778078.09,-139.16,-27.34,-49.32,-80.08,219.24,76.66,295.90000000000003,True
1627069778082.0,-269.04,-27.83,-56.64,-76.17,345.21000000000004,84.47,429.68,True
1627069778085.9,38.57,-29.3,-54.69,-50.29,88.86,83.99,172.85,True
1627069778089.81,223.63,-32.23,-47.36,-53.22,276.85,79.59,356.44000000000005,True
1627069778093.71,-56.15,-38.57,-39.55,-69.34,125.49000000000001,78.12,203.61,True
1627069778097.62,-296.88,-40.04,-40.04,-89.84,386.72,80.08,466.80000000000007,True
1627069778101.53,-69.34,-41.99,-39.55,-72.75,142.09,81.53999999999999,223.63,True
1627069778105.43,217.29,-41.5,-32.71,-40.53,257.82,74.21000000000001,332.03,True
1627069778109.34,43.46,-36.62,-40.53,-62.99,106.45,77.15,183.6,True
1627069778113.25,-277.83,-41.99,-55.18,-95.21,373.03999999999996,97.17,470.21,True
1627069778117.15,-177.73,-52.73,-51.76,-77.15,254.88,104.49,359.37,True
1627069778121.06,159.18,-51.76,-46.88,-42.48,201.66,98.64,300.3,True
1627069778124.96,125.49,-37.6,-47.36,-56.64,182.13,84.96000000000001,267.09,True
1627069778128.87,-213.87,-40.53,-50.78,-88.87,302.74,91.31,394.04999999999995,True
1627069778132.78,-240.72,-52.25,-58.11,-76.66,317.38,110.36,427.74,True
1627069778136.68,101.56,-51.27,-52.73,-26.86,128.42000000000002,104.0,232.42000000000002,True
1627069778140.59,199.71,-35.64,-37.11,-26.37,226.08,72.75,298.83000000000004,True
1627069778144.5,-126.46,-36.13,-42.97,-63.96,190.42,79.1,269.52,True
1627069778148.4,-284.67,-43.46,-45.41,-69.82,354.49,88.87,443.36,True
1627069778152.31,17.09,-29.3,-30.27,-55.18,72.27,59.57,131.84,True
1627069778156.21,233.89,-24.9,-21.0,-47.85,281.74,45.9,327.64,True
1627069778160.12,-32.71,-33.2,-31.25,-76.66,109.37,64.45,173.82,True
1627069778164.03,-303.71,-38.57,-49.8,-100.59,404.29999999999995,88.37,492.66999999999996,True
1627069778167.93,-105.96,-34.67,-38.57,-80.08,186.04,73.24000000000001,259.28,True
1627069778171.84,198.24,-30.76,-17.09,-58.11,256.35,47.85,304.2,True
1627069778175.75,48.83,-39.06,-26.37,-74.71,123.53999999999999,65.43,188.97,True
1627069778179.65,-281.25,-51.76,-41.99,-91.8,373.05,93.75,466.8,True
1627069778183.56,-207.03,-54.69,-42.97,-62.99,270.02,97.66,367.67999999999995,True
1627069778187.46,133.3,-32.71,-20.02,-51.76,185.06,52.730000000000004,237.79000000000002,True
1627069778191.37,132.32,-25.88,-11.23,-62.01,194.32999999999998,37.11,231.43999999999997,True
1627069778195.28,-204.59,-37.11,-32.71,-79.1,283.69,69.82,353.51,True
1627069778199.18,-274.9,-40.04,-36.62,-91.31,366.21,76.66,442.87,True
1627069778203.09,50.29,-38.57,-19.53,-74.22,124.50999999999999,58.1,182.60999999999999,True
1627069778207.0,185.55,-31.25,-11.72,-68.36,253.91000000000003,42.97,296.88000000000005,True
1627069778210.9,-115.23,-36.62,-23.93,-92.77,208.0,60.55,268.55,True
1627069778214.81,-304.69,-45.9,-27.83,-103.03,407.72,73.72999999999999,481.45,True
1627069778218.71,-33.2,-41.5,-18.07,-75.68,108.88000000000001,59.57,168.45,True
1627069778222.62,203.61,-40.04,-15.63,-52.73,256.34000000000003,55.67,312.01000000000005,True
1627069778226.53,-21.0,-48.83,-20.02,-67.87,88.87,68.85,157.72,True
1627069778230.43,-300.78,-55.66,-30.76,-95.21,395.98999999999995,86.42,482.40999999999997,True
1627069778234.34,-135.25,-41.5,-26.37,-69.82,205.07,67.87,272.94,True
1627069778238.25,186.52,-31.74,-22.46,-52.25,238.77,54.2,292.96999999999997,True
1627069778242.15,83.5,-49.32,-41.99,-58.11,141.61,91.31,232.92000000000002,True
1627069778246.06,-251.95,-42.97,-33.2,-71.78,323.73,76.17,399.90000000000003,True
1627069778249.96,-218.26,-31.25,-28.81,-79.59,297.85,60.06,357.91,True
1627069778253.87,120.12,-30.76,-36.13,-58.11,178.23000000000002,66.89,245.12,True
1627069778257.78,153.81,-31.25,-26.37,-52.25,206.06,57.620000000000005,263.68,True
1627069778261.68,-176.27,-35.16,-27.83,-77.15,253.42000000000002,62.989999999999995,316.41,True
1627069778265.59,-268.07,-39.55,-30.76,-73.24,341.31,70.31,411.62,True
1627069778269.5,47.85,-43.46,-21.97,-32.23,80.08,65.43,145.51,True
1627069778273.4,201.66,-37.6,-17.09,-21.0,222.66,54.69,277.34999999999997,True
1627069778277.31,-88.87,-33.69,-21.48,-56.15,145.02,55.17,200.19,True
1627069778281.21,-300.78,-41.02,-34.18,-75.68,376.46,75.2,451.65999999999997,True
1627069778285.12,-56.15,-40.04,-39.55,-35.64,91.78999999999999,79.59,171.38,True
1627069778289.03,207.52,-33.2,-32.23,-3.91,211.43,65.43,276.86,True
1627069778292.93,11.23,-27.83,-28.32,-44.43,55.66,56.15,111.81,True
1627069778296.84,-294.92,-37.11,-44.43,-75.68,370.6,81.53999999999999,452.14000000000004,True
1627069778300.75,-152.34,-45.41,-35.16,-58.59,210.93,80.57,291.5,True
1627069778304.65,181.15,-33.69,-15.63,-41.5,222.65,49.32,271.97,True
1627069778308.56,102.05,-23.44,-26.86,-56.15,158.2,50.3,208.5,True
1627069778312.46,-229.0,-29.3,-43.95,-80.08,309.08,73.25,382.33,True
1627069778316.37,-217.77,-35.16,-51.76,-73.73,291.5,86.91999999999999,378.41999999999996,True
1627069778320.28,110.84,-29.3,-53.71,-56.15,166.99,83.01,250.00000000000003,True
1627069778324.18,173.34,-16.6,-47.36,-60.55,233.89,63.96,297.84999999999997,True
1627069778328.09,-149.9,-25.88,-60.06,-83.5,233.4,85.94,319.34000000000003,True
1627069778332.0,-280.76,-39.55,-76.17,-69.34,350.1,115.72,465.82000000000005,True
1627069778335.9,21.48,-21.48,-49.32,-40.53,62.010000000000005,70.8,132.81,True
1627069778339.81,205.57,-21.48,-35.64,-47.85,253.42,57.120000000000005,310.53999999999996,True
1627069778343.71,-64.45,-32.71,-46.88,-78.13,142.57999999999998,79.59,222.17,True
1627069778347.62,-300.29,-30.76,-50.78,-94.73,395.02000000000004,81.54,476.56000000000006,True
1627069778351.53,-83.98,-25.88,-46.88,-83.98,167.96,72.76,240.72,True
1627069778355.43,194.82,-23.93,-41.5,-55.66,250.48,65.43,315.90999999999997,True
1627069778359.34,25.88,-30.27,-40.53,-67.38,93.25999999999999,70.8,164.06,True
1627069778363.25,-293.46,-35.64,-47.85,-97.17,390.63,83.49000000000001,474.12,True
1627069778367.15,-191.41,-36.13,-53.22,-80.57,271.98,89.35,361.33000000000004,True
1627069778371.06,145.02,-31.25,-44.43,-54.69,199.71,75.68,275.39,True
1627069778374.96,113.28,-34.18,-38.57,-60.06,173.34,72.75,246.09,True
1627069778378.87,-219.24,-41.99,-41.02,-82.03,301.27,83.01,384.28,True
1627069778382.78,-248.54,-40.53,-36.62,-95.7,344.24,77.15,421.39,True
1627069778386.68,76.66,-42.97,-27.34,-75.68,152.34,70.31,222.65,True
1627069778390.59,163.57,-39.55,-30.27,-70.31,233.88,69.82,303.7,True
1627069778394.5,-159.67,-38.57,-38.09,-92.29,251.95999999999998,76.66,328.62,True
1627069778398.4,-321.29,-45.41,-48.34,-94.73,416.02000000000004,93.75,509.7700000000001,True
1627069778402.31,-33.2,-45.9,-48.83,-70.8,104.0,94.72999999999999,198.73000000000002,True
1627069778406.21,189.45,-42.97,-38.09,-45.9,235.35,81.06,316.40999999999997,True
1627069778410.12,-55.66,-46.39,-38.57,-71.78,127.44,84.96000000000001,212.39999999999998,True
1627069778414.03,-316.41,-53.22,-48.34,-95.7,412.11,101.56,513.6700000000001,True
1627069778417.93,-124.51,-51.76,-46.39,-69.82,194.32999999999998,98.15,292.47999999999996,True
1627069778421.84,177.25,-57.13,-38.57,-40.04,217.29,95.7,312.99,True
1627069778425.75,48.34,-49.32,-17.58,-54.69,103.03,66.9,169.93,True
1627069778429.65,-272.46,-44.92,-21.0,-83.5,355.96,65.92,421.88,True
1627069778433.56,-203.61,-52.25,-29.79,-68.36,271.97,82.03999999999999,354.01000000000005,True
1627069778437.46,125.0,-47.85,-20.51,-54.69,179.69,68.36,248.04999999999998,True
1627069778441.37,117.68,-50.78,-28.81,-68.36,186.04000000000002,79.59,265.63,True
1627069778445.28,-213.87,-63.96,-39.06,-90.33,304.2,103.02000000000001,407.21999999999997,True
1627069778449.18,-273.93,-64.94,-44.92,-98.14,372.07,109.86,481.93,True
1627069778453.09,48.34,-53.22,-35.16,-67.38,115.72,88.38,204.1,True
1627069778457.0,178.22,-59.08,-27.34,-54.2,232.42000000000002,86.42,318.84,True
1627069778460.9,-116.21,-62.5,-38.57,-84.96,201.17,101.07,302.23999999999995,True
1627069778464.81,-304.69,-64.45,-54.69,-94.73,399.42,119.14,518.56,True
1627069778468.71,-39.55,-58.59,-50.78,-51.76,91.31,109.37,200.68,True
1627069778472.62,195.31,-38.09,-30.76,-51.27,246.58,68.85000000000001,315.43,True
1627069778476.53,-42.48,-43.46,-47.36,-96.19,138.67,90.82,229.49,True
1627069778480.43,-340.82,-60.06,-67.87,-114.26,455.08,127.93,583.01,False
1627069778484.34,-177.73,-51.76,-54.69,-92.77,270.5,106.44999999999999,376.95,True
1627069778488.25,146.97,-37.6,-37.6,-67.38,214.35,75.2,289.55,True
1627069778492.15,42.48,-45.9,-44.43,-80.57,123.04999999999998,90.33,213.38,True
1627069778496.06,-291.99,-55.18,-53.22,-111.82,403.81,108.4,512.21,True
1627069778499.96,-266.6,-52.25,-49.8,-115.72,382.32000000000005,102.05,484.37000000000006,True
1627069778503.87,68.36,-44.92,-44.43,-86.43,154.79000000000002,89.35,244.14000000000004,True
1627069778507.78,99.61,-45.9,-46.39,-92.29,191.9,92.28999999999999,284.19,True
1627069778511.68,-237.3,-60.55,-60.06,-119.63,356.93,120.61,477.54,True
1627069778515.59,-335.45,-64.94,-58.11,-123.54,458.99,123.05,582.0400000000001,False
1627069778519.5,-9.77,-51.76,-33.69,-97.66,107.42999999999999,85.44999999999999,192.88,True
1627069778523.4,155.27,-53.71,-35.64,-82.03,237.3,89.35,326.65,True
1627069778527.31,-133.79,-55.18,-49.8,-106.93,240.72,104.97999999999999,345.7,True
1627069778531.21,-352.54,-53.71,-44.92,-121.09,473.63,98.63,572.26,False
1627069778535.12,-105.96,-51.76,-31.25,-91.8,197.76,83.00999999999999,280.77,True
1627069778539.03,171.88,-44.92,-29.79,-66.41,238.29,74.71000000000001,313.0,True
1627069778542.93,-23.44,-54.69,-47.36,-86.43,109.87,102.05,211.92000000000002,True
1627069778546.84,-333.5,-60.55,-60.55,-106.93,440.43,121.1,561.53,False
1627069778550.75,-196.29,-44.92,-52.25,-83.01,279.3,97.17,376.47,True
1627069778554.65,127.93,-46.88,-44.43,-54.69,182.62,91.31,273.93,True
1627069778558.56,62.99,-47.36,-41.99,-63.96,126.95,89.35,216.3,True
1627069778562.46,-276.37,-44.92,-46.39,-106.45,382.82,91.31,474.13,True
1627069778566.37,-290.04,-56.64,-54.2,-115.72,405.76,110.84,516.6,True
1627069778570.28,59.57,-54.69,-56.15,-84.47,144.04,110.84,254.88,True
1627069778574.18,133.79,-46.88,-56.15,-84.47,218.26,103.03,321.28999999999996,True
1627069778578.09,-199.22,-49.8,-54.2,-112.79,312.01,104.0,416.01,True
1627069778582.0,-323.73,-51.76,-56.64,-107.42,431.15000000000003,108.4,539.5500000000001,True
1627069778585.9,-14.65,-50.29,-56.15,-69.82,84.47,106.44,190.91,True
1627069778589.81,175.29,-41.99,-42.48,-61.04,236.32999999999998,84.47,320.8,True
1627069778593.71,-84.96,-40.53,-42.97,-92.77,177.73,83.5,261.23,True
1627069778597.62,-326.66,-49.32,-52.25,-101.56,428.22,101.57,529.79,True
1627069778601.53,-111.33,-47.36,-52.73,-71.29,182.62,100.09,282.71000000000004,True
1627069778605.43,181.15,-39.55,-44.43,-50.78,231.93,83.97999999999999,315.91,True
1627069778609.34,25.39,-44.43,-44.43,-62.99,88.38,88.86,177.24,True
1627069778613.25,-285.16,-54.2,-56.15,-75.2,360.36,110.35,470.71,True
1627069778617.15,-187.99,-47.36,-60.55,-48.34,236.33,107.91,344.24,True
1627069778621.06,141.6,-34.67,-43.46,-31.25,172.85,78.13,250.98,True
1627069778624.96,110.84,-43.95,-39.55,-50.29,161.13,83.5,244.63,True
1627069778628.87,-224.12,-53.22,-51.27,-66.89,291.01,104.49000000000001,395.5,True
1627069778632.78,-259.28,-58.11,-48.83,-64.45,323.72999999999996,106.94,430.66999999999996,True
1627069778636.68,68.36,-51.76,-35.16,-49.8,118.16,86.91999999999999,205.07999999999998,True
1627069778640.59,159.18,-41.99,-23.93,-50.78,209.96,65.92,275.88,True
1627069778644.5,-158.2,-60.55,-34.18,-71.29,229.49,94.72999999999999,324.22,True
1627069778648.4,-317.38,-72.75,-50.29,-76.66,394.03999999999996,123.03999999999999,517.0799999999999,True
1627069778652.31,-35.64,-61.04,-38.09,-50.29,85.93,99.13,185.06,True
1627069778656.21,182.62,-56.64,-22.46,-42.97,225.59,79.1,304.69,True
1627069778660.12,-57.62,-63.96,-41.5,-63.96,121.58,105.46000000000001,227.04,True
1627069778664.03,-314.94,-62.01,-47.36,-65.92,380.86,109.37,490.23,True
1627069778667.93,-116.21,-48.83,-29.3,-60.06,176.26999999999998,78.13,254.39999999999998,True
1627069778671.84,179.69,-44.92,-30.76,-53.71,233.4,75.68,309.08,True
1627069778675.75,42.48,-48.83,-46.88,-65.92,108.4,95.71000000000001,204.11,True
1627069778679.65,-276.86,-48.83,-48.83,-79.59,356.45000000000005,97.66,454.11,True
1627069778683.56,-213.38,-42.97,-36.62,-68.36,281.74,79.59,361.33000000000004,True
1627069778687.46,121.09,-39.06,-31.74,-47.85,168.94,70.8,239.74,True
1627069778691.37,120.12,-43.46,-39.55,-59.57,179.69,83.00999999999999,262.7,True
1627069778695.28,-202.64,-46.39,-42.97,-83.98,286.62,89.36,375.98,True
1627069778699.18,-251.46,-47.85,-42.48,-79.59,331.05,90.33,421.38000000000005,True
1627069778703.09,69.34,-47.85,-40.53,-58.59,127.93,88.38,216.31,True
1627069778707.0,192.87,-51.76,-50.78,-44.43,237.3,102.53999999999999,339.84000000000003,True
1627069778710.9,-117.19,-46.39,-52.73,-67.87,185.06,99.12,284.18,True
1627069778714.81,-317.38,-45.9,-48.34,-94.24,411.62,94.24000000000001,505.86,True
1627069778718.71,-68.85,-51.27,-49.8,-79.1,147.95,101.07,249.01999999999998,True
1627069778722.62,170.9,-51.27,-48.83,-62.01,232.91,100.1,333.01,True
1627069778726.53,-41.02,-58.11,-41.02,-87.4,128.42000000000002,99.13,227.55000000000004,True
1627069778730.43,-316.41,-57.62,-40.04,-106.93,423.34000000000003,97.66,521.0,True
1627069778734.34,-151.37,-48.34,-44.92,-82.03,233.4,93.26,326.66,True
1627069778738.25,162.11,-40.04,-32.71,-57.13,219.24,72.75,291.99,True
1627069778742.15,63.96,-41.5,-41.99,-77.15,141.11,83.49000000000001,224.60000000000002,True
1627069778746.06,-267.09,-46.39,-62.5,-110.84,377.92999999999995,108.89,486.81999999999994,True
1627069778749.96,-243.16,-49.32,-56.15,-87.89,331.05,105.47,436.52,True
1627069778753.87,101.56,-38.57,-42.48,-40.04,141.6,81.05,222.64999999999998,True
1627069778757.78,137.7,-24.9,-35.64,-65.92,203.62,60.54,264.16,True
1627069778761.68,-199.22,-40.53,-51.27,-105.96,305.18,91.80000000000001,396.98,True
1627069778765.59,-283.2,-40.04,-61.04,-97.66,380.86,101.08,481.94000000000005,True
1627069778769.5,36.62,-22.95,-41.5,-70.31,106.93,64.45,171.38,True
1627069778773.4,195.8,-21.97,-28.32,-61.04,256.84000000000003,50.29,307.13000000000005,True
1627069778777.31,-90.82,-31.25,-39.55,-77.64,168.45999999999998,70.8,239.26,True
1627069778781.21,-309.57,-41.99,-51.76,-95.7,405.27,93.75,499.02,True
1627069778785.12,-68.36,-44.92,-43.95,-78.13,146.49,88.87,235.36,True
1627069778789.03,191.41,-44.92,-38.57,-56.15,247.56,83.49000000000001,331.05,True
1627069778792.93,5.37,-44.43,-42.48,-77.15,82.52000000000001,86.91,169.43,True
1627069778796.84,-284.67,-51.76,-52.73,-90.33,375.0,104.49,479.49,True
1627069778800.75,-157.23,-44.43,-45.9,-81.05,238.27999999999997,90.33,328.60999999999996,True
1627069778804.65,159.67,-43.95,-30.76,-62.01,221.67999999999998,74.71000000000001,296.39,True
1627069778808.56,94.24,-46.39,-31.25,-70.31,164.55,77.64,242.19,True
1627069778812.46,-234.86,-44.43,-39.55,-98.63,333.49,83.97999999999999,417.47,True
1627069778816.37,-238.28,-41.99,-39.55,-94.73,333.01,81.53999999999999,414.55,True
1627069778820.28,83.98,-41.99,-28.32,-63.48,147.46,70.31,217.77,True
1627069778824.18,139.65,-45.41,-30.27,-60.06,199.71,75.67999999999999,275.39,True
1627069778828.09,-184.57,-41.99,-33.69,-85.45,270.02,75.68,345.7,True
1627069778832.0,-316.41,-43.95,-30.76,-99.61,416.02000000000004,74.71000000000001,490.73,True
1627069778835.9,-15.63,-41.99,-21.97,-82.52,98.14999999999999,63.96,162.10999999999999,True
1627069778839.81,168.46,-42.48,-12.7,-64.45,232.91000000000003,55.17999999999999,288.09000000000003,True
1627069778843.71,-106.45,-55.66,-18.55,-83.5,189.95,74.21,264.15999999999997,True
1627069778847.62,-339.36,-47.85,-22.46,-107.42,446.78000000000003,70.31,517.09,True
1627069778851.53,-118.16,-41.02,-29.3,-92.77,210.93,70.32000000000001,281.25,True
1627069778855.43,163.57,-39.55,-29.3,-67.87,231.44,68.85,300.29,True
1627069778859.34,-6.84,-40.53,-26.86,-82.03,88.87,67.39,156.26,True
1627069778863.25,-315.43,-46.39,-38.09,-94.73,410.16,84.48,494.64,True
1627069778867.15,-210.45,-47.85,-36.13,-69.34,279.78999999999996,83.98,363.77,True
1627069778871.06,117.19,-45.41,-32.23,-40.04,157.23,77.63999999999999,234.86999999999998,True
1627069778874.96,88.38,-43.95,-31.74,-55.18,143.56,75.69,219.25,True
1627069778878.87,-238.28,-44.92,-34.18,-83.5,321.78,79.1,400.88,True
1627069778882.78,-265.14,-46.88,-41.02,-69.34,334.48,87.9,422.38,True
1627069778886.68,72.27,-46.88,-38.57,-24.9,97.16999999999999,85.45,182.61999999999998,True
1627069778890.59,168.95,-38.09,-24.41,-29.3,198.25,62.5,260.75,True
1627069778894.5,-137.21,-39.55,-34.18,-66.41,203.62,73.72999999999999,277.35,True
1627069778898.4,-292.48,-50.78,-50.78,-72.27,364.75,101.56,466.30999999999995,True
1627069778902.31,-8.3,-44.43,-41.99,-45.9,54.2,86.42,140.62,True
1627069778906.21,219.24,-36.13,-35.16,-29.79,249.03,71.28999999999999,320.32000000000005,True
1627069778910.12,-29.3,-45.41,-45.41,-52.25,81.55,90.82,172.37,True
1627069778914.03,-293.95,-49.8,-57.62,-71.78,365.73,107.41999999999999,473.15000000000003,True
1627069778917.93,-88.87,-46.39,-46.39,-53.71,142.58,92.78,235.36,True
1627069778921.84,195.31,-45.41,-30.76,-43.46,238.77,76.17,314.94,True
1627069778925.75,52.73,-41.5,-32.71,-68.85,121.57999999999998,74.21000000000001,195.79,True
1627069778929.65,-258.79,-54.69,-51.27,-87.4,346.19000000000005,105.96000000000001,452.15000000000003,True
1627069778933.56,-196.29,-59.08,-57.13,-64.94,261.23,116.21000000000001,377.44,True
1627069778937.46,129.88,-38.09,-35.16,-47.36,177.24,73.25,250.49,True
1627069778941.37,127.44,-41.02,-28.32,-68.36,195.8,69.34,265.14000000000004,True
1627069778945.28,-204.59,-53.71,-45.41,-98.14,302.73,99.12,401.85,True
1627069778949.18,-268.55,-49.8,-49.8,-92.77,361.32,99.6,460.92,True
1627069778953.09,48.34,-40.04,-32.23,-61.04,109.38,72.27,181.64999999999998,True
1627069778957.0,181.15,-34.18,-34.67,-60.06,241.21,68.85,310.06,True
1627069778960.9,-108.4,-42.48,-56.64,-88.87,197.27,99.12,296.39,True
1627069778964.81,-285.64,-40.53,-57.62,-105.96,391.59999999999997,98.15,489.75,True
1627069778968.71,-18.55,-33.2,-39.55,-92.29,110.84,72.75,183.59000000000003,True
1627069778972.62,220.7,-29.79,-28.32,-64.45,285.15,58.11,343.26,True
1627069778976.53,-3.42,-37.6,-41.99,-67.87,71.29,79.59,150.88000000000002,True
1627069778980.43,-298.34,-42.97,-44.92,-104.49,402.83,87.89,490.71999999999997,True
1627069778984.34,-137.21,-36.13,-30.76,-88.38,225.59,66.89,292.48,True
1627069778988.25,177.25,-30.27,-32.23,-50.78,228.03,62.5,290.53000000000003,True
1627069778992.15,78.61,-40.04,-49.8,-51.76,130.37,89.84,220.20999999999998,True
1627069778996.06,-242.68,-34.67,-49.8,-84.96,327.64,84.47,412.11,True
1627069778999.96,-209.47,-25.88,-44.92,-93.26,302.73,70.8,373.53000000000003,True
1627069779003.87,118.16,-32.71,-38.57,-68.36,186.51999999999998,71.28,257.8,True
1627069779007.78,152.83,-35.64,-35.64,-67.87,220.70000000000002,71.28,291.98,True
1627069779011.68,-167.48,-31.25,-42.48,-91.31,258.78999999999996,73.72999999999999,332.52,True
1627069779015.59,-263.67,-34.67,-42.97,-99.61,363.28000000000003,77.64,440.9200000000001,True
1627069779019.5,44.43,-35.16,-37.11,-72.27,116.69999999999999,72.27,188.96999999999997,True
1627069779023.4,203.13,-31.25,-26.86,-59.08,262.21,58.11,320.32,True
1627069779027.31,-76.17,-38.09,-28.81,-90.33,166.5,66.9,233.4,True
1627069779031.21,-288.09,-43.46,-40.04,-107.42,395.51,83.5,479.01,True
1627069779035.12,-59.08,-52.25,-47.85,-79.59,138.67000000000002,100.1,238.77,True
1627069779039.03,189.94,-52.25,-35.16,-51.76,241.7,87.41,329.11,True
1627069779042.93,5.86,-36.13,-20.02,-80.57,86.42999999999999,56.150000000000006,142.58,True
1627069779046.84,-275.88,-44.43,-40.04,-96.68,372.56,84.47,457.03000000000003,True
1627069779050.75,-128.91,-53.71,-44.92,-62.01,190.92,98.63,289.55,True
1627069779054.65,196.78,-45.41,-29.3,-44.43,241.21,74.71,315.92,True
1627069779058.56,132.32,-46.39,-37.6,-62.5,194.82,83.99000000000001,278.81,True
1627069779062.46,-194.82,-57.13,-50.29,-88.38,283.2,107.42,390.62,True
1627069779066.37,-198.24,-55.18,-47.85,-75.2,273.44,103.03,376.47,True
1627069779070.28,132.81,-46.39,-36.62,-39.55,172.36,83.00999999999999,255.37,True
1627069779074.18,201.66,-52.25,-37.11,-44.92,246.57999999999998,89.36,335.94,True
1627069779078.09,-116.21,-51.76,-51.76,-69.34,185.55,103.52,289.07,True
1627069779082.0,-248.05,-52.25,-63.96,-62.5,310.55,116.21000000000001,426.76,True
1627069779085.9,42.97,-36.62,-35.64,-38.57,81.53999999999999,72.25999999999999,153.8,True
1627069779089.81,233.4,-25.39,-25.39,-36.62,270.02,50.78,320.79999999999995,True
1627069779093.71,-10.74,-33.69,-48.83,-55.66,66.39999999999999,82.52,148.92,True
1627069779097.62,-244.63,-37.6,-51.27,-61.52,306.15,88.87,395.02,True
1627069779101.53,-33.69,-35.64,-34.18,-40.53,74.22,69.82,144.04,True
1627069779105.43,251.46,-35.64,-25.88,-11.72,263.18,61.519999999999996,324.7,True
1627069779109.34,88.87,-38.09,-37.6,-28.81,117.68,75.69,193.37,True
1627069779113.25,-226.07,-41.99,-41.99,-62.01,288.08,83.98,372.06,True
1627069779117.15,-135.74,-44.92,-32.71,-51.76,187.5,77.63,265.13,True
1627069779121.06,182.62,-44.43,-27.83,-33.69,216.31,72.25999999999999,288.57,True
1627069779124.96,154.3,-44.43,-35.16,-40.53,194.83,79.59,274.42,True
1627069779128.87,-168.46,-43.95,-50.78,-42.97,211.43,94.73,306.15999999999997,True
1627069779132.78,-212.89,-27.34,-37.6,-52.73,265.62,64.94,330.56,True
1627069779136.68,99.61,-22.46,-22.46,-46.39,146.0,44.92,190.92000000000002,True
1627069779140.59,194.82,-31.74,-28.81,-42.97,237.79,60.55,298.34,True
1627069779144.5,-115.72,-36.62,-37.6,-78.61,194.32999999999998,74.22,268.55,True
1627069779148.4,-268.55,-33.69,-36.62,-83.01,351.56,70.31,421.87,True
1627069779152.31,13.18,-31.74,-32.23,-50.29,63.47,63.97,127.44,True
1627069779156.21,228.52,-28.81,-22.95,-35.64,264.16,51.76,315.92,True
1627069779160.12,-5.86,-25.39,-18.55,-55.66,61.519999999999996,43.94,105.46,True
1627069779164.03,-263.67,-30.27,-31.25,-69.82,333.49,61.519999999999996,395.01,True
1627069779167.93,-77.64,-32.71,-40.04,-49.8,127.44,72.75,200.19,True
1627069779171.84,215.33,-34.18,-43.46,-13.67,229.0,77.64,306.64,True
1627069779175.75,77.64,-21.0,-30.27,-34.18,111.82,51.269999999999996,163.09,True
1627069779179.65,-244.14,-19.53,-36.13,-82.03,326.16999999999996,55.660000000000004,381.8299999999999,True
1627069779183.56,-186.52,-28.32,-45.9,-71.78,258.3,74.22,332.52,True
1627069779187.46,138.67,-24.9,-33.2,-42.48,181.14999999999998,58.1,239.25,True
1627069779191.37,141.6,-21.0,-36.62,-43.46,185.06,57.62,242.68,True
1627069779195.28,-178.22,-21.48,-48.34,-62.01,240.23,69.82000000000001,310.04999999999995,True
1627069779199.18,-245.12,-29.3,-55.18,-58.59,303.71000000000004,84.48,388.19000000000005,True
1627069779203.09,80.57,-23.93,-47.36,-16.11,96.67999999999999,71.28999999999999,167.96999999999997,True
1627069779207.0,217.77,-11.72,-32.23,-1.95,219.72,43.949999999999996,263.67,True
1627069779210.9,-116.21,-25.39,-28.32,-62.01,178.22,53.71,231.93,True
1627069779214.81,-336.91,-46.39,-37.11,-91.31,428.22,83.5,511.72,True
1627069779218.71,-78.13,-41.5,-37.6,-45.41,123.53999999999999,79.1,202.64,True
1627069779222.62,150.39,-26.37,-10.74,-56.64,207.02999999999997,37.11,244.14,True
1627069779226.53,-73.73,-41.5,-10.25,-100.1,173.82999999999998,51.75,225.57999999999998,True
1627069779230.43,-359.86,-52.73,-22.95,-113.28,473.14,75.67999999999999,548.82,True
1627069779234.34,-224.61,-47.85,-5.37,-114.75,339.36,53.22,392.58000000000004,True
1627069779238.25,84.47,-49.32,1.46,-96.68,181.15,50.78,231.93,True
1627069779242.15,-20.02,-60.55,-5.86,-117.68,137.70000000000002,66.41,204.11,True
1627069779246.06,-344.24,-79.59,-16.6,-134.28,478.52,96.19,574.71,False
1627069779249.96,-310.06,-75.2,-12.21,-119.14,429.2,87.41,516.61,True
1627069779253.87,8.3,-65.92,7.81,-107.42,115.72,73.73,189.45,True
1627069779257.78,57.62,-78.61,2.44,-94.73,152.35,81.05,233.39999999999998,True
1627069779261.68,-270.51,-92.77,-14.65,-103.52,374.03,107.42,481.44999999999993,True
1627069779265.59,-375.0,-87.4,-4.39,-107.91,482.90999999999997,91.79,574.6999999999999,False
1627069779269.5,-55.66,-77.15,2.44,-81.54,137.2,79.59,216.79,True
1627069779273.4,107.91,-77.15,-7.32,-73.73,181.64,84.47,266.10999999999996,True
1627069779277.31,-163.09,-80.08,-20.51,-88.38,251.47,100.59,352.06,True
1627069779281.21,-369.14,-83.98,-19.04,-100.1,469.24,103.02000000000001,572.26,False
1627069779285.12,-123.05,-77.64,-3.91,-76.66,199.70999999999998,81.55,281.26,True
1627069779289.03,141.11,-65.92,-0.98,-49.8,190.91000000000003,66.9,257.81000000000006,True
1627069779292.93,-46.88,-65.92,-11.72,-69.82,116.69999999999999,77.64,194.34,True
1627069779296.84,-338.87,-66.89,-26.86,-94.24,433.11,93.75,526.86,True
1627069779300.75,-214.36,-61.52,-28.81,-84.96,299.32,90.33,389.65,True
1627069779304.65,97.66,-50.29,-20.02,-52.25,149.91,70.31,220.22,True
1627069779308.56,36.13,-43.46,-15.63,-53.71,89.84,59.09,148.93,True
1627069779312.46,-286.13,-40.53,-21.0,-86.91,373.03999999999996,61.53,434.56999999999994,True
1627069779316.37,-275.88,-42.48,-23.93,-71.29,347.17,66.41,413.58000000000004,True
1627069779320.28,62.99,-46.39,-21.0,-33.69,96.68,67.39,164.07,True
1627069779324.18,127.93,-41.99,-15.14,-39.06,166.99,57.13,224.12,True
1627069779328.09,-194.34,-41.5,-28.32,-73.24,267.58,69.82,337.4,True
1627069779332.0,-327.64,-46.88,-39.55,-80.57,408.21,86.43,494.64,True
1627069779335.9,-27.34,-46.39,-39.06,-54.69,82.03,85.45,167.48000000000002,True
1627069779339.81,171.88,-35.16,-27.83,-44.92,216.8,62.989999999999995,279.79,True
1627069779343.71,-91.8,-35.16,-30.27,-75.68,167.48000000000002,65.42999999999999,232.91000000000003,True
1627069779347.62,-329.1,-46.39,-46.39,-100.59,429.69000000000005,92.78,522.47,True
1627069779351.53,-104.49,-51.76,-49.32,-75.2,179.69,101.08,280.77,True
1627069779355.43,170.9,-42.48,-41.99,-51.76,222.66,84.47,307.13,True
1627069779359.34,19.04,-41.02,-47.36,-75.2,94.24000000000001,88.38,182.62,True
1627069779363.25,-277.34,-52.25,-62.5,-92.77,370.10999999999996,114.75,484.85999999999996,True
1627069779367.15,-193.85,-59.57,-60.06,-62.99,256.84,119.63,376.46999999999997,True
1627069779371.06,125.98,-42.48,-37.11,-45.9,171.88,79.59,251.46999999999997,True
1627069779374.96,96.19,-35.16,-31.25,-52.25,148.44,66.41,214.85,True
1627069779378.87,-233.4,-51.27,-43.95,-78.61,312.01,95.22,407.22999999999996,True
1627069779382.78,-223.14,-57.13,-46.39,-81.05,304.19,103.52000000000001,407.71,True
1627069779386.68,73.73,-50.78,-37.11,-48.83,122.56,87.89,210.45,True
1627069779390.59,145.51,-41.02,-38.57,-54.69,200.2,79.59,279.79,True
1627069779394.5,-146.0,-44.43,-54.69,-86.43,232.43,99.12,331.55,True
1627069779398.4,-309.57,-45.41,-50.29,-89.36,398.93,95.69999999999999,494.63000000000005,True
1627069779402.31,-28.81,-38.57,-25.88,-71.29,100.10000000000001,64.45,164.55,True
1627069779406.21,186.04,-31.74,-18.55,-54.2,240.24,50.29,290.53000000000003,True
1627069779410.12,-56.15,-32.71,-40.04,-62.01,118.16,72.75,190.91,True
1627069779414.03,-304.69,-33.2,-48.83,-74.22,378.90999999999997,82.03,460.93999999999994,True
1627069779417.93,-109.38,-20.02,-27.34,-64.94,174.32,47.36,221.68,True
1627069779421.84,180.66,-21.48,-22.95,-42.48,223.14,44.43,267.57,True
1627069779425.75,54.69,-34.18,-38.57,-52.25,106.94,72.75,179.69,True
1627069779429.65,-234.86,-26.37,-44.92,-62.5,297.36,71.29,368.65000000000003,True
1627069779433.56,-160.16,-16.11,-41.02,-53.22,213.38,57.13,270.51,True
1627069779437.46,141.11,-24.9,-29.79,-54.2,195.31,54.69,250.0,True
1627069779441.37,128.91,-34.18,-25.39,-64.45,193.36,59.57,252.93,True
1627069779445.28,-187.99,-41.02,-30.76,-87.4,275.39,71.78,347.16999999999996,True
1627069779449.18,-256.84,-44.92,-36.62,-88.87,345.71,81.53999999999999,427.25,True
1627069779453.09,34.18,-43.95,-19.53,-70.31,104.49000000000001,63.480000000000004,167.97,True
1627069779457.0,162.6,-54.69,-11.23,-48.83,211.43,65.92,277.35,True
1627069779460.9,-125.49,-49.8,-10.74,-79.59,205.07999999999998,60.54,265.62,True
1627069779464.81,-310.55,-42.97,-2.44,-105.47,416.02,45.41,461.43,True
1627069779468.71,-37.6,-43.46,0.98,-66.41,104.00999999999999,44.44,148.45,True
1627069779472.62,208.98,-37.6,0.49,-50.78,259.76,38.09,297.85,True
1627069779476.53,-5.86,-52.25,-9.77,-82.52,88.38,62.019999999999996,150.4,True
1627069779480.43,-280.27,-60.55,-22.95,-98.63,378.9,83.5,462.4,True
1627069779484.34,-121.58,-49.8,-18.55,-73.73,195.31,68.35,263.66,True
1627069779488.25,183.59,-41.5,-2.93,-48.34,231.93,44.43,276.36,True
1627069779492.15,96.68,-43.46,-5.86,-59.57,156.25,49.32,205.57000000000002,True
1627069779496.06,-221.68,-47.36,-22.95,-91.31,312.99,70.31,383.3,True
1627069779499.96,-191.89,-47.85,-31.74,-77.15,269.03999999999996,79.59,348.63,True
1627069779503.87,132.81,-45.9,-18.55,-34.18,166.99,64.45,231.44000000000003,True
1627069779507.78,166.99,-35.64,0.0,-57.62,224.61,35.64,260.25,True
1627069779511.68,-155.27,-41.5,-16.11,-99.61,254.88,57.61,312.49,True
1627069779515.59,-258.79,-45.41,-31.74,-96.68,355.47,77.14999999999999,432.62,True
1627069779519.5,41.99,-36.13,-22.46,-68.85,110.84,58.59,169.43,True
1627069779523.4,202.15,-29.79,-19.53,-64.45,266.6,49.32,315.9200000000001,True
1627069779527.31,-79.59,-41.5,-37.6,-87.4,166.99,79.1,246.09,True
1627069779531.21,-291.5,-49.8,-49.32,-91.31,382.81,99.12,481.93,True
1627069779535.12,-50.29,-39.55,-41.02,-59.08,109.37,80.57,189.94000000000003,True
1627069779539.03,204.1,-38.09,-34.18,-38.57,242.67,72.27000000000001,314.94,True
1627069779542.93,16.6,-43.95,-35.16,-64.45,81.05000000000001,79.11,160.16000000000003,True
1627069779546.84,-262.21,-54.69,-44.92,-68.85,331.05999999999995,99.61,430.66999999999996,True
1627069779550.75,-133.3,-43.46,-31.74,-50.78,184.08,75.2,259.28000000000003,True
1627069779554.65,170.9,-26.86,-12.21,-35.16,206.06,39.07,245.13000000000002,True
1627069779558.56,103.52,-31.74,-24.9,-49.32,152.84,56.64,209.48000000000002,True
1627069779562.46,-223.63,-41.99,-39.06,-85.45,309.08,81.05000000000001,390.13,True
1627069779566.37,-224.12,-36.62,-28.32,-78.13,302.25,64.94,367.19,True
1627069779570.28,103.52,-25.39,-15.63,-48.83,152.35,41.02,193.37,True
1627069779574.18,176.76,-32.23,-25.88,-51.27,228.03,58.11,286.14,True
1627069779578.09,-133.79,-39.55,-35.64,-80.08,213.87,75.19,289.06,True
1627069779582.0,-266.6,-41.5,-35.64,-92.29,358.89000000000004,77.14,436.03000000000003,True
1627069779585.9,27.83,-44.43,-33.2,-67.38,95.21,77.63,172.83999999999997,True
1627069779589.81,217.29,-55.18,-25.88,-39.55,256.84,81.06,337.9,True
1627069779593.71,-39.55,-62.5,-29.79,-57.62,97.16999999999999,92.28999999999999,189.45999999999998,True
1627069779597.62,-271.48,-56.15,-28.32,-99.61,371.09000000000003,84.47,455.56,True
1627069779601.53,-62.01,-59.57,-26.37,-78.13,140.14,85.94,226.07999999999998,True
1627069779605.43,208.98,-54.69,-24.9,-36.13,245.10999999999999,79.59,324.69999999999993,True
1627069779609.34,51.27,-48.34,-32.23,-53.22,104.49000000000001,80.57,185.06,True
1627069779613.25,-243.16,-60.06,-46.88,-91.8,334.96,106.94,441.9,True
1627069779617.15,-150.88,-64.45,-48.34,-81.05,231.93,112.79,344.72,True
1627069779621.06,158.69,-56.64,-44.92,-55.66,214.35,101.56,315.91,True
1627069779624.96,132.32,-53.71,-39.06,-64.94,197.26,92.77000000000001,290.03,True
1627069779628.87,-188.48,-56.64,-41.5,-92.77,281.25,98.14,379.39,True
1627069779632.78,-225.1,-60.55,-43.46,-83.5,308.6,104.00999999999999,412.61,True
1627069779636.68,90.82,-60.55,-32.71,-52.25,143.07,93.25999999999999,236.33,True
1627069779640.59,185.55,-50.29,-18.55,-60.06,245.61,68.84,314.45000000000005,True
1627069779644.5,-122.56,-47.85,-27.34,-93.75,216.31,75.19,291.5,True
1627069779648.4,-284.67,-52.25,-39.06,-100.59,385.26,91.31,476.57,True
1627069779652.31,-8.79,-53.22,-37.11,-50.29,59.08,90.33,149.41,True
1627069779656.21,201.17,-41.02,-22.46,-43.95,245.12,63.480000000000004,308.59999999999997,True
1627069779660.12,-37.11,-41.99,-23.44,-94.73,131.84,65.43,197.27,True
1627069779664.03,-293.46,-58.59,-34.67,-109.38,402.84,93.26,496.09999999999997,True
1627069779667.93,-116.21,-57.13,-27.83,-82.52,198.73,84.96000000000001,283.69,True
1627069779671.84,165.53,-42.97,-13.67,-60.06,225.59,56.64,282.23,True
1627069779675.75,49.8,-46.88,-20.02,-83.01,132.81,66.9,199.71,True
1627069779679.65,-250.49,-57.62,-30.76,-104.49,354.98,88.38,443.36,True
1627069779683.56,-181.15,-53.22,-20.51,-70.8,251.95,73.73,325.67999999999995,True
1627069779687.46,151.37,-36.13,-1.46,-44.43,195.8,37.59,233.39000000000001,True
1627069779691.37,142.09,-31.25,-9.28,-71.78,213.87,40.53,254.4,True
1627069779695.28,-191.41,-33.2,-37.11,-95.7,287.11,70.31,357.42,True
1627069779699.18,-264.65,-28.32,-37.11,-86.91,351.55999999999995,65.43,416.98999999999995,True
1627069779703.09,47.85,-21.48,-16.6,-60.55,108.4,38.08,146.48,True
1627069779707.0,175.78,-22.46,-11.72,-48.34,224.12,34.18,258.3,True
1627069779710.9,-121.09,-31.25,-23.93,-65.92,187.01,55.18,242.19,True
1627069779714.81,-296.88,-35.16,-31.74,-73.73,370.61,66.89999999999999,437.51,True
1627069779718.71,-41.5,-27.34,-26.86,-51.76,93.25999999999999,54.2,147.45999999999998,True
1627069779722.62,203.13,-24.9,-23.93,-32.71,235.84,48.83,284.67,True
1627069779726.53,6.84,-31.25,-34.18,-46.88,53.72,65.43,119.15,True
1627069779730.43,-276.37,-31.25,-41.02,-75.2,351.57,72.27000000000001,423.84,True
1627069779734.34,-132.81,-30.27,-32.23,-67.87,200.68,62.5,263.18,True
1627069779738.25,171.39,-28.32,-22.95,-44.43,215.82,51.269999999999996,267.09,True
1627069779742.15,83.98,-28.81,-29.3,-49.32,133.3,58.11,191.41000000000003,True
1627069779746.06,-231.45,-33.2,-38.09,-72.27,303.71999999999997,71.29,375.01,True
1627069779749.96,-207.52,-34.18,-40.53,-69.82,277.34000000000003,74.71000000000001,352.05000000000007,True
1627069779753.87,110.84,-35.64,-40.04,-48.83,159.67000000000002,75.68,235.35,True
1627069779757.78,147.95,-37.11,-49.32,-39.06,187.01,86.43,273.44,True
1627069779761.68,-171.88,-29.79,-41.02,-79.59,251.47,70.81,322.28,True
1627069779765.59,-263.67,-33.2,-36.62,-84.47,348.14,69.82,417.96,True
1627069779769.5,43.46,-32.71,-47.85,-40.04,83.5,80.56,164.06,True
1627069779773.4,204.59,-30.27,-41.99,-38.09,242.68,72.26,314.94,True
1627069779777.31,-62.5,-37.6,-46.88,-66.89,129.39,84.48,213.86999999999998,True
1627069779781.21,-273.44,-38.57,-57.62,-89.84,363.28,96.19,459.46999999999997,True
1627069779785.12,-46.88,-39.55,-48.83,-66.89,113.77000000000001,88.38,202.14999999999998,True
1627069779789.03,206.54,-43.95,-33.69,-39.55,246.08999999999997,77.64,323.72999999999996,True
1627069779792.93,24.41,-40.04,-32.71,-58.59,83.0,72.75,155.75,True
1627069779796.84,-266.6,-46.39,-45.9,-74.71,341.31,92.28999999999999,433.59999999999997,True
1627069779800.75,-147.46,-50.29,-44.43,-56.15,203.61,94.72,298.33,True
1627069779804.65,164.55,-39.06,-24.41,-30.27,194.82000000000002,63.47,258.29,True
1627069779808.56,111.82,-33.69,-30.27,-50.78,162.6,63.959999999999994,226.56,True
1627069779812.46,-202.15,-42.97,-38.09,-75.2,277.35,81.06,358.4100000000001,True
1627069779816.37,-203.61,-40.04,-27.34,-56.64,260.25,67.38,327.63,True
1627069779820.28,113.77,-38.57,-18.55,-34.67,148.44,57.120000000000005,205.56,True
1627069779824.18,170.41,-48.34,-13.67,-52.73,223.14,62.010000000000005,285.15000000000003,True
1627069779828.09,-137.21,-46.88,-22.95,-77.15,214.36,69.83,284.19,True
1627069779832.0,-263.18,-48.83,-26.37,-69.34,332.52,75.2,407.71999999999997,True
1627069779835.9,21.48,-41.02,-14.16,-46.88,68.36,55.18000000000001,123.53999999999999,True
1627069779839.81,207.03,-33.69,-10.74,-37.6,244.63,44.43,289.06,True
1627069779843.71,-40.53,-46.88,-30.27,-59.57,100.1,77.15,177.25,True
1627069779847.62,-276.37,-57.13,-51.27,-58.59,334.96000000000004,108.4,443.36,True
1627069779851.53,-75.68,-43.95,-41.5,-33.69,109.37,85.45,194.82,True
1627069779855.43,191.41,-39.55,-30.27,-30.76,222.17,69.82,291.98999999999995,True
1627069779859.34,39.55,-44.92,-31.25,-49.8,89.35,76.17,165.51999999999998,True
1627069779863.25,-251.95,-42.48,-35.16,-71.29,323.24,77.63999999999999,400.88,True
1627069779867.15,-163.09,-45.9,-36.13,-64.45,227.54000000000002,82.03,309.57,True
1627069779871.06,151.86,-36.62,-27.34,-46.88,198.74,63.959999999999994,262.7,True
1627069779874.96,124.02,-38.09,-36.62,-51.27,175.29,74.71000000000001,250.0,True
1627069779878.87,-200.2,-53.71,-50.29,-59.57,259.77,104.0,363.77,True
1627069779882.78,-238.28,-38.09,-41.5,-77.15,315.43,79.59,395.02,True
1627069779886.68,70.31,-36.13,-33.69,-62.99,133.3,69.82,203.12,True
1627069779890.59,169.43,-50.29,-34.18,-56.15,225.58,84.47,310.05,True
1627069779894.5,-128.42,-48.34,-35.64,-87.4,215.82,83.98,299.79999999999995,True
1627069779898.4,-287.11,-46.39,-33.2,-90.33,377.44,79.59,457.03,True
1627069779902.31,-15.14,-53.22,-30.27,-58.11,73.25,83.49,156.74,True
1627069779906.21,182.13,-51.27,-37.11,-43.95,226.07999999999998,88.38,314.46,True
1627069779910.12,-40.53,-52.73,-41.5,-57.13,97.66,94.22999999999999,191.89,True
1627069779914.03,-281.74,-54.69,-39.06,-63.96,345.7,93.75,439.45,True
1627069779917.93,-102.54,-49.8,-35.16,-45.9,148.44,84.96,233.4,True
1627069779921.84,180.18,-50.78,-37.11,-18.07,198.25,87.89,286.14,True
1627069779925.75,55.66,-41.99,-33.2,-27.34,83.0,75.19,158.19,True
1627069779929.65,-248.54,-40.53,-39.06,-65.92,314.46,79.59,394.05,True
1627069779933.56,-198.73,-54.69,-49.8,-58.59,257.32,104.49,361.81,True
1627069779937.46,108.89,-46.88,-44.43,-37.6,146.49,91.31,237.8,True
1627069779941.37,119.14,-37.11,-38.09,-54.2,173.34,75.2,248.54,True
1627069779945.28,-194.34,-40.53,-46.88,-86.91,281.25,87.41,368.65999999999997,True
1627069779949.18,-269.04,-49.8,-54.2,-98.14,367.18,104.0,471.18,True
1627069779953.09,36.13,-42.48,-44.92,-66.89,103.02000000000001,87.4,190.42000000000002,True
1627069779957.0,163.57,-32.71,-39.06,-60.06,223.63,71.77000000000001,295.4,True
1627069779960.9,-122.56,-39.55,-41.5,-82.03,204.59,81.05,285.64,True
1627069779964.81,-294.92,-41.02,-48.83,-78.13,373.05,89.85,462.9,True
1627069779968.71,-39.06,-37.11,-47.36,-55.66,94.72,84.47,179.19,True
1627069779972.62,189.45,-31.74,-34.18,-41.5,230.95,65.92,296.87,True
1627069779976.53,-5.86,-26.86,-33.69,-51.27,57.13,60.55,117.68,True
1627069779980.43,-273.93,-36.13,-48.83,-62.5,336.43,84.96000000000001,421.39,True
1627069779984.34,-133.79,-32.23,-39.06,-47.36,181.14999999999998,71.28999999999999,252.43999999999997,True
1627069779988.25,164.06,-19.04,-19.04,-34.18,198.24,38.08,236.32,True
1627069779992.15,79.59,-24.9,-23.93,-45.41,125.0,48.83,173.83,True
1627069779996.06,-225.1,-27.83,-33.69,-72.75,297.85,61.519999999999996,359.37,True
1627069779999.96,-194.34,-23.44,-26.37,-61.04,255.38,49.81,305.19,True
1627069780003.87,127.44,-19.04,-17.09,-26.86,154.3,36.129999999999995,190.43,True
1627069780007.78,151.86,-13.67,-21.97,-43.46,195.32000000000002,35.64,230.96,True
1627069780011.68,-167.48,-25.88,-38.09,-66.41,233.89,63.97,297.86,True
1627069780015.59,-264.65,-29.79,-29.79,-69.34,333.99,59.58,393.57000000000005,True
1627069780019.5,14.16,-25.88,-5.86,-62.99,77.15,31.74,108.89,True
1627069780023.4,165.53,-32.23,-6.84,-44.92,210.45,39.06999999999999,249.51999999999998,True
1627069780027.31,-99.12,-34.18,-20.51,-72.27,171.39,54.69,226.07999999999998,True
1627069780031.21,-299.8,-27.83,-21.0,-98.14,397.94,48.83,446.77,True
1627069780035.12,-66.89,-21.97,-12.7,-72.75,139.64,34.67,174.30999999999997,True
1627069780039.03,183.11,-18.55,-11.72,-39.06,222.17000000000002,30.270000000000003,252.44000000000003,True
1627069780042.93,4.39,-18.07,-13.67,-47.36,51.75,31.740000000000002,83.49,True
1627069780046.84,-277.83,-25.39,-17.09,-81.54,359.37,42.480000000000004,401.84999999999997,True
1627069780050.75,-158.2,-25.39,-14.65,-73.73,231.93,40.04,271.96999999999997,True
1627069780054.65,146.97,-21.48,-8.3,-39.06,186.03,29.78,215.81,True
1627069780058.56,95.7,-20.02,-6.35,-33.2,128.9,26.369999999999997,155.27,True
1627069780062.46,-218.75,-23.44,-4.88,-61.52,280.27,28.32,308.59,True
1627069780066.37,-229.98,-29.79,-11.23,-58.59,288.57,41.019999999999996,329.59000000000003,True
1627069780070.28,82.03,-25.39,-14.16,-23.93,105.96000000000001,39.55,145.51000000000002,True
1627069780074.18,152.34,-19.04,-14.65,-19.53,171.87,33.69,205.56,True
1627069780078.09,-150.88,-23.44,-26.37,-60.06,210.94,49.81,260.75,True
1627069780082.0,-272.95,-23.44,-36.62,-71.29,344.24,60.06,404.3,True
1627069780085.9,12.21,-19.53,-28.81,-34.18,46.39,48.34,94.73,True
1627069780089.81,187.01,-18.55,-18.07,-32.71,219.72,36.620000000000005,256.34000000000003,True
1627069780093.71,-66.89,-19.53,-25.88,-69.82,136.70999999999998,45.41,182.11999999999998,True
1627069780097.62,-295.41,-31.25,-39.55,-81.54,376.95000000000005,70.8,447.75000000000006,True
1627069780101.53,-89.84,-37.6,-36.62,-37.6,127.44,74.22,201.66,True
1627069780105.43,177.25,-22.46,-19.04,-17.09,194.34,41.5,235.84,True
1627069780109.34,29.79,-14.65,-25.39,-43.46,73.25,40.04,113.29,True
1627069780113.25,-267.09,-22.95,-50.29,-58.59,325.67999999999995,73.24,398.91999999999996,True
1627069780117.15,-186.04,-30.76,-54.2,-35.16,221.2,84.96000000000001,306.15999999999997,True
1627069780121.06,126.95,-28.81,-30.27,-14.16,141.11,59.08,200.19000000000003,True
1627069780124.96,108.89,-27.34,-24.9,-20.51,129.4,52.239999999999995,181.64000000000001,True
1627069780128.87,-205.57,-26.37,-39.55,-48.83,254.39999999999998,65.92,320.32,True
1627069780132.78,-250.0,-27.83,-37.11,-44.43,294.43,64.94,359.37,True
1627069780136.68,61.04,-21.0,-20.02,-4.88,65.92,41.019999999999996,106.94,True
1627069780140.59,163.09,-19.04,-22.95,-14.65,177.74,41.989999999999995,219.73,True
1627069780144.5,-134.28,-31.74,-34.67,-58.11,192.39,66.41,258.8,True
1627069780148.4,-290.04,-37.6,-35.64,-66.89,356.93,73.24000000000001,430.17,True
1627069780152.31,-16.6,-29.79,-24.9,-47.36,63.96,54.69,118.65,True
1627069780156.21,190.92,-26.37,-19.04,-44.92,235.83999999999997,45.41,281.25,True
1627069780160.12,-42.48,-36.62,-41.99,-51.76,94.24,78.61,172.85,True
1627069780164.03,-288.57,-41.99,-51.76,-52.25,340.82,93.75,434.57,True
1627069780167.93,-116.21,-30.27,-35.64,-49.8,166.01,65.91,231.92000000000002,True
1627069780171.84,160.64,-28.81,-35.64,-40.04,200.67999999999998,64.45,265.13,True
1627069780175.75,48.83,-28.32,-44.92,-53.71,102.53999999999999,73.24000000000001,175.77999999999997,True
1627069780179.65,-252.93,-18.07,-52.25,-80.57,333.5,70.32,403.82,True
1627069780183.56,-196.78,-15.63,-39.55,-69.82,266.6,55.18,321.78000000000003,True
1627069780187.46,117.19,-14.65,-26.37,-33.2,150.39,41.02,191.41,True
1627069780191.37,119.63,-16.6,-33.2,-37.11,156.74,49.800000000000004,206.54000000000002,True
1627069780195.28,-190.92,-23.93,-49.32,-79.1,270.02,73.25,343.27,True
1627069780199.18,-246.09,-23.93,-50.29,-86.43,332.52,74.22,406.74,True
1627069780203.09,38.09,-30.76,-40.53,-65.43,103.52000000000001,71.29,174.81,True
1627069780207.0,165.04,-35.64,-52.73,-25.39,190.43,88.37,278.8,True
1627069780210.9,-102.54,-24.9,-49.32,-29.79,132.33,74.22,206.55,True
1627069780214.81,-293.95,-29.79,-30.76,-66.41,360.36,60.55,420.91,True
1627069780218.71,-66.41,-39.06,-22.46,-62.01,128.42,61.52,189.94,True
1627069780222.62,162.11,-39.06,-15.14,-57.62,219.73000000000002,54.2,273.93,True
1627069780226.53,-25.88,-43.95,-19.53,-64.45,90.33,63.480000000000004,153.81,True
1627069780230.43,-296.88,-57.62,-19.04,-62.01,358.89,76.66,435.55,True
1627069780234.34,-158.2,-56.15,0.49,-46.39,204.58999999999997,56.64,261.22999999999996,True
1627069780238.25,135.74,-50.29,13.67,-22.46,158.20000000000002,63.96,222.16,True
1627069780242.15,51.76,-56.64,15.63,-22.95,74.71,72.27,146.98,True
1627069780246.06,-242.19,-54.69,20.02,-36.62,278.81,74.71,353.52,True
1627069780249.96,-215.33,-58.11,15.63,-14.65,229.98000000000002,73.74,303.72,True
1627069780253.87,95.7,-53.71,18.07,21.97,117.67,71.78,189.45,True
1627069780257.78,134.28,-49.32,15.14,0.0,134.28,64.46000000000001,198.74,True
1627069780261.68,-171.88,-57.13,-4.39,-40.53,212.41,61.52,273.93,True
1627069780265.59,-262.7,-53.22,-6.84,-34.67,297.37,60.06,357.43,True
1627069780269.5,29.3,-43.46,13.18,6.84,36.14,56.64,92.78,True
1627069780273.4,188.48,-36.62,27.83,6.35,194.82999999999998,64.44999999999999,259.28,True
1627069780277.31,-77.64,-40.53,8.3,-22.95,100.59,48.83,149.42000000000002,True
1627069780281.21,-285.64,-43.95,-6.35,-23.93,309.57,50.300000000000004,359.87,True
1627069780285.12,-55.66,-43.95,11.72,-16.6,72.25999999999999,55.67,127.92999999999999,True
1627069780289.03,189.45,-41.99,15.14,-17.58,207.02999999999997,57.13,264.15999999999997,True
1627069780292.93,19.04,-38.09,2.93,-34.18,53.22,41.02,94.24000000000001,True
1627069780296.84,-260.74,-49.32,-12.7,-36.62,297.36,62.019999999999996,359.38,True
1627069780300.75,-146.97,-41.99,-2.44,-22.46,169.43,44.43,213.86,True
1627069780304.65,159.67,-28.32,11.72,-18.07,177.73999999999998,40.04,217.77999999999997,True
1627069780308.56,107.91,-34.18,0.98,-28.32,136.23,35.16,171.39,True
1627069780312.46,-193.85,-30.27,-11.72,-61.04,254.89,41.99,296.88,True
1627069780316.37,-209.47,-28.32,-19.04,-56.15,265.62,47.36,312.98,True
1627069780320.28,94.24,-20.02,-8.3,-23.93,118.16999999999999,28.32,146.49,True
1627069780324.18,166.5,-11.72,-20.02,-31.25,197.75,31.740000000000002,229.49,True
1627069780328.09,-132.32,-19.53,-37.6,-44.92,177.24,57.13,234.37,True
1627069780332.0,-251.46,-21.0,-28.32,-44.43,295.89,49.32,345.21,True
1627069780335.9,27.34,-11.72,-22.46,-30.76,58.1,34.18,92.28,True
1627069780339.81,202.64,-12.21,-19.53,-16.11,218.75,31.740000000000002,250.49,True
1627069780343.71,-50.78,-23.44,-25.88,-16.6,67.38,49.32,116.69999999999999,True
1627069780347.62,-272.46,-16.6,-26.37,-35.16,307.62,42.97,350.59000000000003,True
1627069780351.53,-63.48,-5.37,-9.77,-18.07,81.55,15.14,96.69,True
1627069780355.43,203.61,-8.79,1.95,12.21,215.82000000000002,10.739999999999998,226.56,True
1627069780359.34,63.48,-9.77,-8.3,-10.25,73.72999999999999,18.07,91.79999999999998,True
1627069780363.25,-227.54,-5.86,-14.65,-43.46,271.0,20.51,291.51,True
1627069780367.15,-149.9,-10.25,-11.72,-35.64,185.54000000000002,21.97,207.51000000000002,True
1627069780371.06,155.27,-16.6,-11.72,-18.07,173.34,28.32,201.66,True
1627069780374.96,134.77,-17.58,-8.79,-40.53,175.3,26.369999999999997,201.67,True
1627069780378.87,-179.69,-19.04,-16.6,-68.36,248.05,35.64,283.69000000000005,True
1627069780382.78,-215.82,-22.46,-24.41,-61.04,276.86,46.870000000000005,323.73,True
1627069780386.68,79.59,-20.51,-12.7,-27.83,107.42,33.21,140.63,True
1627069780390.59,163.09,-14.16,-7.81,-36.62,199.71,21.97,221.68,True
1627069780394.5,-127.44,-18.07,-21.97,-83.01,210.45,40.04,250.48999999999998,True
1627069780398.4,-279.3,-27.34,-26.37,-90.33,369.63,53.71,423.34,True
1627069780402.31,-16.6,-21.48,-21.48,-65.43,82.03,42.96,124.99000000000001,True
1627069780406.21,185.06,-12.21,-17.09,-61.52,246.58,29.3,275.88,True
1627069780410.12,-32.23,-14.16,-20.51,-87.4,119.63,34.67,154.29999999999998,True
1627069780414.03,-271.48,-20.51,-27.83,-94.73,366.21000000000004,48.34,414.55,True
1627069780417.93,-100.59,-18.55,-17.09,-61.52,162.11,35.64,197.75000000000003,True
1627069780421.84,174.8,-12.21,-6.84,-36.13,210.93,19.05,229.98000000000002,True
1627069780425.75,60.55,-6.35,-19.04,-65.43,125.98,25.39,151.37,True
1627069780429.65,-237.79,-13.67,-41.02,-92.77,330.56,54.690000000000005,385.25,True
1627069780433.56,-191.41,-17.09,-32.71,-70.31,261.72,49.8,311.52,True
1627069780437.46,120.12,-11.23,-4.88,-53.71,173.83,16.11,189.94,True
1627069780441.37,129.39,-6.84,-7.81,-61.52,190.91,14.649999999999999,205.56,True
1627069780445.28,-181.64,-12.21,-32.71,-82.03,263.66999999999996,44.92,308.5899999999999,True
1627069780449.18,-245.61,-20.51,-32.23,-75.68,321.29,52.739999999999995,374.03000000000003,True
1627069780453.09,54.69,-15.14,-8.3,-51.27,105.96000000000001,23.44,129.4,True
1627069780457.0,171.39,-16.11,-5.86,-52.73,224.11999999999998,21.97,246.08999999999997,True
1627069780460.9,-106.45,-20.02,-19.53,-74.71,181.16,39.55,220.71,True
1627069780464.81,-280.27,-22.46,-19.04,-81.54,361.81,41.5,403.31,True
1627069780468.71,-34.18,-18.55,-11.72,-56.64,90.82,30.270000000000003,121.08999999999999,True
1627069780472.62,200.2,-8.3,-7.81,-33.2,233.39999999999998,16.11,249.51,True
1627069780476.53,2.93,-12.21,-15.63,-36.62,39.55,27.840000000000003,67.39,True
1627069780480.43,-266.6,-18.07,-16.6,-52.73,319.33000000000004,34.67,354.00000000000006,True
1627069780484.34,-124.51,-12.21,-11.72,-39.55,164.06,23.93,187.99,True
1627069780488.25,160.64,-9.77,-13.18,-18.07,178.70999999999998,22.95,201.66,True
1627069780492.15,67.87,-22.95,-26.37,-24.9,92.77000000000001,49.32,142.09,True
1627069780496.06,-236.82,-18.07,-26.86,-58.11,294.93,44.93,339.86,True
1627069780499.96,-211.43,-9.77,-21.0,-47.36,258.79,30.77,289.56,True
1627069780503.87,99.61,-13.67,-16.6,-7.81,107.42,30.270000000000003,137.69,True
1627069780507.78,134.77,-14.65,-22.46,-17.09,151.86,37.11,188.97000000000003,True
1627069780511.68,-174.8,-16.6,-36.62,-50.78,225.58,53.22,278.8,True
1627069780515.59,-275.39,-21.48,-42.48,-52.25,327.64,63.959999999999994,391.6,True
1627069780519.5,19.53,-19.53,-32.23,-22.46,41.99,51.76,93.75,True
1627069780523.4,175.29,-18.07,-25.88,-17.09,192.38,43.95,236.32999999999998,True
1627069780527.31,-96.68,-24.41,-40.04,-53.22,149.9,64.45,214.35,True
1627069780531.21,-311.04,-29.3,-43.46,-81.05,392.09000000000003,72.76,464.85,True
1627069780535.12,-90.82,-36.62,-42.48,-57.13,147.95,79.1,227.04999999999998,True
1627069780539.03,159.18,-31.74,-32.23,-26.37,185.55,63.97,249.52,True
1627069780542.93,-17.58,-22.46,-36.62,-47.85,65.43,59.08,124.51000000000002,True
1627069780546.84,-300.29,-28.32,-55.18,-74.71,375.0,83.5,458.5,True
1627069780550.75,-181.64,-32.23,-49.8,-61.04,242.67999999999998,82.03,324.71,True
1627069780554.65,125.0,-19.53,-26.37,-30.76,155.76,45.900000000000006,201.66,True
1627069780558.56,70.31,-12.21,-14.65,-40.04,110.35,26.86,137.21,True
1627069780562.46,-238.28,-21.97,-25.88,-64.94,303.22,47.849999999999994,351.07000000000005,True
1627069780566.37,-251.95,-33.2,-26.37,-54.2,306.15,59.57000000000001,365.71999999999997,True
1627069780570.28,52.73,-30.76,-11.23,-37.11,89.84,41.99,131.83,True
1627069780574.18,130.86,-18.55,-7.32,-42.48,173.34,25.87,199.21,True
1627069780578.09,-170.41,-22.95,-21.97,-75.68,246.09,44.92,291.01,True
1627069780582.0,-294.43,-33.69,-41.5,-75.68,370.11,75.19,445.3,True
1627069780585.9,-9.77,-21.48,-26.86,-44.43,54.2,48.34,102.54,True
1627069780589.81,166.99,-12.21,-14.65,-40.04,207.03,26.86,233.89000000000001,True
1627069780593.71,-78.13,-20.51,-41.5,-58.59,136.72,62.010000000000005,198.73,True
1627069780597.62,-305.18,-29.3,-53.22,-67.38,372.56,82.52,455.08000000000004,True
1627069780601.53,-106.93,-24.41,-30.76,-41.02,147.95000000000002,55.17,203.12,True
1627069780605.43,171.88,-18.07,-26.37,-5.37,177.25,44.44,221.69,True
1627069780609.34,34.67,-23.93,-30.27,-16.11,50.78,54.2,104.98,True
1627069780613.25,-272.46,-30.27,-30.27,-56.15,328.60999999999996,60.54,389.1499999999999,True
1627069780617.15,-199.22,-33.69,-31.25,-57.13,256.35,64.94,321.29,True
1627069780621.06,104.49,-31.25,-26.37,-31.74,136.23,57.620000000000005,193.85,True
1627069780624.96,76.66,-38.09,-32.71,-32.23,108.88999999999999,70.80000000000001,179.69,True
1627069780628.87,-233.89,-45.9,-40.04,-53.22,287.11,85.94,373.05,True
1627069780632.78,-273.93,-39.06,-32.71,-65.92,339.85,71.77000000000001,411.62,True
1627069780636.68,24.9,-40.04,-31.74,-43.46,68.36,71.78,140.14000000000001,True
1627069780640.59,120.12,-44.92,-26.86,-38.09,158.21,71.78,229.99,True
1627069780644.5,-162.6,-38.57,-29.3,-64.94,227.54,67.87,295.41,True
1627069780648.4,-306.64,-33.69,-36.62,-74.22,380.86,70.31,451.17,True
1627069780652.31,-43.46,-37.11,-34.67,-40.04,83.5,71.78,155.28,True
1627069780656.21,165.04,-32.71,-31.74,-15.63,180.67,64.45,245.12,True
1627069780660.12,-48.83,-30.76,-33.2,-42.97,91.8,63.96000000000001,155.76,True
1627069780664.03,-277.83,-35.64,-36.13,-59.08,336.90999999999997,71.77000000000001,408.67999999999995,True
1627069780667.93,-117.19,-35.16,-31.74,-39.06,156.25,66.89999999999999,223.15,True
1627069780671.84,153.32,-31.74,-35.64,-3.42,156.73999999999998,67.38,224.12,True
1627069780675.75,33.2,-25.39,-32.71,-14.16,47.36,58.1,105.46000000000001,True
1627069780679.65,-267.58,-22.46,-38.09,-53.71,321.28999999999996,60.550000000000004,381.8399999999999,True
1627069780683.56,-206.05,-28.32,-45.9,-36.13,242.18,74.22,316.4,True
1627069780687.46,95.21,-29.79,-26.37,-13.18,108.38999999999999,56.16,164.54999999999998,True
1627069780691.37,97.66,-32.71,-20.02,-28.32,125.97999999999999,52.730000000000004,178.71,True
1627069780695.28,-195.31,-32.23,-28.81,-50.29,245.6,61.03999999999999,306.64,True
1627069780699.18,-251.95,-33.2,-31.25,-48.34,300.28999999999996,64.45,364.73999999999995,True
1627069780703.09,42.97,-33.69,-22.95,-28.81,71.78,56.64,128.42,True
1627069780707.0,168.46,-34.18,-21.0,-28.32,196.78,55.18,251.96,True
1627069780710.9,-101.07,-37.6,-32.71,-58.59,159.66,70.31,229.97,True
1627069780714.81,-278.81,-43.95,-43.46,-67.87,346.68,87.41,434.09,True
1627069780718.71,-36.13,-41.5,-31.74,-29.79,65.92,73.24,139.16,True
1627069780722.62,189.94,-19.04,-15.14,-12.21,202.15,34.18,236.32999999999998,True
1627069780726.53,-13.67,-25.88,-27.34,-44.43,58.1,53.22,111.32000000000001,True
1627069780730.43,-277.34,-38.57,-41.5,-68.36,345.7,80.07,425.77,True
1627069780734.34,-132.81,-30.27,-30.27,-41.99,174.8,60.54,235.34000000000003,True
1627069780738.25,149.9,-21.48,-16.6,-15.63,165.53,38.08,203.60999999999999,True
1627069780742.15,71.78,-29.79,-25.88,-21.0,92.78,55.67,148.45,True
1627069780746.06,-220.21,-41.02,-42.48,-41.5,261.71000000000004,83.5,345.21000000000004,True
1627069780749.96,-203.13,-34.18,-42.97,-39.06,242.19,77.15,319.34000000000003,True
1627069780753.87,103.03,-23.44,-27.83,-15.14,118.17,51.269999999999996,169.44,True
1627069780757.78,142.09,-20.02,-31.74,-20.02,162.11,51.76,213.87000000000003,True
1627069780761.68,-159.18,-17.09,-46.39,-46.88,206.06,63.480000000000004,269.54,True
1627069780765.59,-257.81,-13.67,-41.02,-50.78,308.59000000000003,54.690000000000005,363.28000000000003,True
1627069780769.5,23.44,-11.72,-37.11,-35.16,58.599999999999994,48.83,107.42999999999999,True
1627069780773.4,171.88,-8.79,-35.16,-25.88,197.76,43.949999999999996,241.70999999999998,True
1627069780777.31,-86.43,-11.23,-36.62,-48.83,135.26,47.849999999999994,183.10999999999999,True
1627069780781.21,-289.06,-23.44,-47.36,-69.82,358.88,70.8,429.68,True
1627069780785.12,-68.85,-22.46,-35.64,-42.97,111.82,58.1,169.92000000000002,True
1627069780789.03,170.41,-15.14,-33.2,-29.79,200.2,48.34,248.53999999999996,True
1627069780792.93,-8.3,-22.46,-40.53,-49.8,58.099999999999994,62.99,121.09,True
1627069780796.84,-279.3,-21.0,-41.99,-65.43,344.73,62.99,407.72,True
1627069780800.75,-161.62,-10.25,-48.34,-52.73,214.35,58.59,272.94,True
1627069780804.65,133.3,-6.35,-46.88,-18.07,151.37,53.230000000000004,204.6,True
1627069780808.56,79.59,-8.3,-39.06,-17.09,96.68,47.36,144.04000000000002,True
1627069780812.46,-229.98,-14.16,-35.64,-68.85,298.83,49.8,348.63,True
1627069780816.37,-238.28,-19.53,-43.46,-69.82,308.1,62.99,371.09,True
1627069780820.28,63.48,-21.97,-49.8,-27.83,91.31,71.77,163.07999999999998,True
1627069780824.18,120.61,-18.07,-44.92,-37.6,158.21,62.99,221.2,True
1627069780828.09,-169.43,-16.11,-43.46,-67.38,236.81,59.57,296.38,True
1627069780832.0,-287.6,-22.46,-49.8,-61.04,348.64000000000004,72.25999999999999,420.90000000000003,True
1627069780835.9,-16.6,-25.39,-52.73,-33.69,50.29,78.12,128.41,True
1627069780839.81,167.48,-20.02,-46.39,-25.39,192.87,66.41,259.28000000000003,True
1627069780843.71,-73.24,-21.0,-48.83,-49.8,123.03999999999999,69.83,192.87,True
1627069780847.62,-300.78,-33.69,-62.99,-62.99,363.77,96.68,460.45,True
1627069780851.53,-102.54,-36.62,-64.45,-21.97,124.51,101.07,225.57999999999998,True
1627069780855.43,164.55,-19.53,-40.53,-2.93,167.48000000000002,60.06,227.54000000000002,True
1627069780859.34,25.39,-10.74,-41.99,-45.9,71.28999999999999,52.730000000000004,124.01999999999998,True
1627069780863.25,-265.63,-17.09,-63.48,-78.61,344.24,80.57,424.81,True
1627069780867.15,-183.11,-25.88,-62.01,-60.06,243.17000000000002,87.89,331.06,True
1627069780871.06,125.98,-14.65,-46.88,-30.27,156.25,61.53,217.78,True
1627069780874.96,106.45,-3.42,-50.78,-45.41,151.86,54.2,206.06,True
1627069780878.87,-206.54,-15.63,-58.59,-73.73,280.27,74.22,354.49,True
1627069780882.78,-242.19,-20.51,-43.46,-60.55,302.74,63.97,366.71,True
1627069780886.68,57.13,-12.7,-35.64,-33.69,90.82,48.34,139.16,True
1627069780890.59,160.64,-16.11,-33.69,-17.58,178.21999999999997,49.8,228.01999999999998,True
1627069780894.5,-107.91,-33.69,-38.09,-18.55,126.46,71.78,198.23999999999998,True
1627069780898.4,-263.18,-29.79,-56.64,-40.04,303.22,86.43,389.65000000000003,True
1627069780902.31,-14.65,-10.25,-54.69,-33.2,47.85,64.94,112.78999999999999,True
1627069780906.21,190.43,-3.91,-45.9,-28.81,219.24,49.81,269.05,True
1627069780910.12,-20.02,-15.14,-64.94,-52.73,72.75,80.08,152.82999999999998,True
1627069780914.03,-254.39,-24.9,-73.73,-56.64,311.03,98.63,409.65999999999997,True
1627069780917.93,-83.5,-8.79,-47.36,-50.78,134.28,56.15,190.43,True
1627069780921.84,193.85,0.0,-38.09,-33.69,227.54,38.09,265.63,True
1627069780925.75,84.47,-8.79,-55.18,-37.11,121.58,63.97,185.55,True
1627069780929.65,-204.1,-12.21,-64.94,-62.5,266.6,77.15,343.75,True
1627069780933.56,-153.32,-13.67,-67.87,-65.43,218.75,81.54,300.28999999999996,True
1627069780937.46,152.34,-2.44,-60.06,-39.06,191.4,62.5,253.9,True
1627069780941.37,164.06,4.88,-50.29,-31.25,195.31,55.17,250.48,True
1627069780945.28,-131.35,0.49,-55.18,-50.78,182.13,55.67,237.8,True
1627069780949.18,-198.24,0.98,-54.2,-51.27,249.51000000000002,55.18,304.69,True
1627069780953.09,88.38,5.86,-42.97,-19.53,107.91,48.83,156.74,True
1627069780957.0,213.38,-0.49,-52.25,0.0,213.38,52.74,266.12,True
1627069780960.9,-59.08,-1.46,-50.78,-35.16,94.24,52.24,146.48,True
1627069780964.81,-238.28,-2.93,-44.92,-61.52,299.8,47.85,347.65000000000003,True
1627069780968.71,-3.42,-8.3,-44.43,-34.18,37.6,52.730000000000004,90.33000000000001,True
1627069780972.62,217.29,-6.84,-35.64,-21.0,238.29,42.480000000000004,280.77,True
1627069780976.53,28.32,-8.3,-42.48,-51.27,79.59,50.78,130.37,True
1627069780980.43,-234.86,-10.25,-50.78,-82.03,316.89,61.03,377.91999999999996,True
1627069780984.34,-103.03,-14.16,-46.88,-63.48,166.51,61.040000000000006,227.54999999999998,True
1627069780988.25,183.59,-10.74,-36.13,-31.74,215.33,46.870000000000005,262.20000000000005,True
1627069780992.15,103.03,-9.77,-44.92,-44.92,147.95,54.69,202.64,True
1627069780996.06,-190.92,-10.74,-49.32,-65.92,256.84,60.06,316.9,True
1627069780999.96,-170.9,-16.6,-44.92,-54.2,225.10000000000002,61.52,286.62,True
1627069781003.87,126.46,-12.21,-42.97,-38.09,164.55,55.18,219.73000000000002,True
1627069781007.78,163.57,-4.39,-43.46,-62.01,225.57999999999998,47.85,273.42999999999995,True
1627069781011.68,-134.77,-16.11,-51.27,-91.8,226.57,67.38,293.95,True
1627069781015.59,-230.96,-21.0,-54.2,-90.33,321.29,75.2,396.49,True
1627069781019.5,52.73,-9.28,-38.57,-65.43,118.16,47.85,166.01,True
1627069781023.4,205.08,-6.35,-31.74,-66.89,271.97,38.089999999999996,310.06000000000006,True
1627069781027.31,-59.57,-16.6,-50.29,-104.98,164.55,66.89,231.44,True
1627069781031.21,-269.04,-27.34,-65.92,-116.21,385.25,93.26,478.51,True
1627069781035.12,-54.2,-24.9,-50.78,-87.4,141.60000000000002,75.68,217.28000000000003,True
1627069781039.03,181.15,-18.55,-34.67,-62.01,243.16,53.22,296.38,True
1627069781042.93,24.9,-22.95,-37.11,-79.59,104.49000000000001,60.06,164.55,True
1627069781046.84,-245.61,-39.06,-56.15,-95.7,341.31,95.21000000000001,436.52,True
1627069781050.75,-140.14,-34.67,-47.85,-92.77,232.90999999999997,82.52000000000001,315.43,True
1627069781054.65,155.27,-16.6,-25.39,-91.31,246.58,41.99,288.57,True
1627069781058.56,97.66,-21.48,-29.3,-116.21,213.87,50.78,264.65,True
1627069781062.46,-210.45,-26.86,-40.04,-150.88,361.33,66.9,428.23,True
1627069781066.37,-221.19,-16.6,-30.76,-133.79,354.98,47.36,402.34000000000003,True
1627069781070.28,75.68,-15.14,-27.34,-108.4,184.08,42.480000000000004,226.56000000000003,True
1627069781074.18,150.39,-21.48,-33.69,-105.96,256.34999999999997,55.17,311.52,True
1627069781078.09,-134.77,-23.44,-32.23,-124.02,258.79,55.67,314.46000000000004,True
1627069781082.0,-256.84,-17.58,-35.64,-142.09,398.92999999999995,53.22,452.1499999999999,True
1627069781085.9,16.11,-10.74,-37.6,-122.07,138.18,48.34,186.52,True
1627069781089.81,188.48,-5.86,-38.57,-107.42,295.9,44.43,340.33,True
1627069781093.71,-55.18,-5.86,-37.6,-123.05,178.23,43.46,221.69,True
1627069781097.62,-276.37,-3.91,-30.27,-143.07,419.44,34.18,453.62,True
1627069781101.53,-80.57,-4.39,-21.97,-122.56,203.13,26.36,229.48999999999998,True
1627069781105.43,180.18,-8.79,-19.04,-81.05,261.23,27.83,289.06000000000006,True
1627069781109.34,38.57,-19.04,-23.44,-85.45,124.02000000000001,42.480000000000004,166.5,True
1627069781113.25,-257.32,-25.88,-33.69,-133.79,391.11,59.56999999999999,450.68,True
1627069781117.15,-183.59,-25.88,-38.09,-122.07,305.65999999999997,63.97,369.63,True
1627069781121.06,122.07,-21.48,-24.9,-62.5,184.57,46.379999999999995,230.95,True
1627069781124.96,106.45,-13.67,-18.55,-57.13,163.58,32.22,195.8,True
1627069781128.87,-202.64,-19.53,-39.06,-86.43,289.07,58.59,347.66,True
1627069781132.78,-245.12,-30.27,-49.8,-83.01,328.13,80.07,408.2,True
1627069781136.68,55.18,-33.2,-39.55,-40.04,95.22,72.75,167.97000000000003,True
1627069781140.59,149.41,-24.41,-15.63,-40.53,189.94,40.04,229.98,True
1627069781144.5,-135.74,-20.02,-9.28,-88.87,224.61,29.299999999999997,253.91000000000003,True
1627069781148.4,-286.62,-27.83,-29.79,-101.07,387.69,57.62,445.31,True
1627069781152.31,-28.81,-28.81,-23.93,-87.4,116.21000000000001,52.739999999999995,168.95000000000002,True
1627069781156.21,165.53,-22.46,-7.32,-104.98,270.51,29.78,300.28999999999996,True
1627069781160.12,-50.78,-25.39,-23.44,-136.72,187.5,48.83,236.32999999999998,True
1627069781164.03,-285.64,-32.71,-42.97,-163.57,449.21,75.68,524.89,True
1627069781167.93,-122.07,-28.32,-36.13,-164.06,286.13,64.45,350.58,True
1627069781171.84,148.93,-18.55,-24.41,-151.86,300.79,42.96,343.75000000000006,True
1627069781175.75,34.18,-20.51,-31.25,-175.78,209.96,51.760000000000005,261.72,True
1627069781179.65,-262.7,-29.79,-52.73,-191.41,454.11,82.52,536.63,True
1627069781183.56,-213.38,-27.83,-53.71,-169.92,383.29999999999995,81.53999999999999,464.8399999999999,True
1627069781187.46,87.4,-21.48,-31.25,-158.69,246.09,52.730000000000004,298.82,True
1627069781191.37,104.0,-16.11,-28.32,-161.62,265.62,44.43,310.05,True
1627069781195.28,-193.85,-17.09,-52.25,-175.29,369.14,69.34,438.47999999999996,True
1627069781199.18,-264.65,-17.09,-48.34,-166.5,431.15,65.43,496.5799999999999,True
1627069781203.09,23.93,-11.72,-29.79,-139.65,163.58,41.51,205.09,True
1627069781207.0,148.93,-11.23,-34.18,-131.84,280.77,45.41,326.18,True
1627069781210.9,-125.49,-23.44,-57.13,-147.95,273.44,80.57000000000001,354.01,True
1627069781214.81,-311.04,-30.27,-67.87,-158.69,469.73,98.14,567.87,False
1627069781218.71,-64.45,-12.7,-55.18,-138.67,203.12,67.88,271.0,True
1627069781222.62,161.13,-7.81,-45.9,-118.65,279.78,53.71,333.48999999999995,True
1627069781226.53,-56.64,-21.97,-55.66,-142.09,198.73000000000002,77.63,276.36,True
1627069781230.43,-310.06,-27.83,-57.13,-165.04,475.1,84.96000000000001,560.0600000000001,False
1627069781234.34,-162.11,-26.37,-43.95,-146.0,308.11,70.32000000000001,378.43,True
1627069781238.25,117.68,-30.27,-38.09,-130.37,248.05,68.36,316.40999999999997,True
1627069781242.15,37.6,-40.04,-54.69,-133.3,170.9,94.72999999999999,265.63,True
1627069781246.06,-253.91,-36.62,-59.57,-158.69,412.6,96.19,508.79,True
1627069781249.96,-226.07,-28.81,-48.34,-161.62,387.69,77.15,464.84000000000003,True
1627069781253.87,79.1,-29.79,-35.64,-125.0,204.1,65.43,269.53,True
1627069781257.78,109.86,-33.69,-32.23,-121.09,230.95,65.91999999999999,296.87,True
1627069781261.68,-196.29,-34.67,-35.64,-155.76,352.04999999999995,70.31,422.35999999999996,True
1627069781265.59,-292.48,-43.46,-37.6,-150.88,443.36,81.06,524.42,True
1627069781269.5,-10.74,-45.9,-38.09,-118.65,129.39000000000001,83.99000000000001,213.38000000000002,True
1627069781273.4,135.25,-42.97,-42.48,-118.65,253.9,85.44999999999999,339.35,True
1627069781277.31,-120.61,-41.99,-45.9,-145.02,265.63,87.89,353.52,True
1627069781281.21,-320.8,-42.48,-39.06,-154.3,475.1,81.53999999999999,556.6400000000001,False
1627069781285.12,-99.61,-47.36,-30.27,-123.05,222.66,77.63,300.28999999999996,True
1627069781289.03,151.86,-44.92,-19.04,-98.14,250.0,63.96,313.96000000000004,True
1627069781292.93,-4.88,-41.02,-19.53,-126.46,131.34,60.550000000000004,191.89000000000001,True
1627069781296.84,-277.83,-45.41,-36.62,-153.81,431.64,82.03,513.67,True
1627069781300.75,-173.83,-50.29,-34.67,-132.81,306.64,84.96000000000001,391.6,True
1627069781304.65,128.42,-41.02,-20.51,-100.1,228.51999999999998,61.53,290.04999999999995,True
1627069781308.56,84.47,-33.2,-16.11,-112.3,196.76999999999998,49.31,246.07999999999998,True
1627069781312.46,-218.26,-40.04,-28.32,-130.86,349.12,68.36,417.48,True
1627069781316.37,-224.61,-46.88,-43.95,-112.79,337.40000000000003,90.83000000000001,428.23,True
1627069781320.28,77.64,-40.53,-33.2,-87.4,165.04000000000002,73.73,238.77000000000004,True
1627069781324.18,143.55,-33.69,-25.88,-94.24,237.79000000000002,59.56999999999999,297.36,True
1627069781328.09,-138.67,-38.09,-45.9,-107.42,246.08999999999997,83.99000000000001,330.0799999999999,True
1627069781332.0,-253.91,-47.85,-59.57,-94.73,348.64,107.42,456.06,True
1627069781335.9,13.18,-36.13,-37.6,-77.64,90.82,73.73,164.54999999999998,True
1627069781339.81,185.55,-25.39,-26.37,-82.52,268.07,51.760000000000005,319.83,True
1627069781343.71,-54.2,-35.16,-44.43,-90.33,144.53,79.59,224.12,True
1627069781347.62,-274.41,-41.99,-52.25,-58.59,333.0,94.24000000000001,427.24,True
1627069781351.53,-84.47,-40.53,-41.5,-2.44,86.91,82.03,168.94,True
1627069781355.43,169.92,-42.97,-37.11,20.51,190.42999999999998,80.08,270.51,True
1627069781359.34,24.9,-46.39,-51.76,10.25,35.15,98.15,133.29999999999998,True
1627069781363.25,-251.95,-48.83,-65.43,-5.86,257.81,114.26,372.07,True
1627069781367.15,-179.2,-49.32,-62.01,8.3,187.5,111.33,298.83,True
1627069781371.06,111.82,-39.06,-56.15,37.11,148.93,95.21000000000001,244.14000000000001,True
1627069781374.96,96.68,-40.04,-54.69,27.83,124.51,94.72999999999999,219.24,True
1627069781378.87,-205.57,-51.76,-56.15,-3.42,208.98999999999998,107.91,316.9,True
1627069781382.78,-252.93,-45.9,-41.99,-32.23,285.16,87.89,373.05,True
1627069781386.68,42.48,-40.53,-37.11,-12.21,54.69,77.64,132.32999999999998,True
1627069781390.59,148.44,-41.02,-50.78,-4.88,153.32,91.80000000000001,245.12,True
1627069781394.5,-124.51,-36.13,-57.13,-51.27,175.78,93.26,269.04,True
1627069781398.4,-270.02,-33.69,-55.18,-73.73,343.75,88.87,432.62,True
1627069781402.31,-11.72,-29.79,-40.53,-41.02,52.74,70.32,123.06,True
1627069781406.21,189.94,-32.23,-38.09,-32.71,222.65,70.32,292.97,True
1627069781410.12,-29.79,-38.57,-45.41,-54.69,84.47999999999999,83.97999999999999,168.45999999999998,True
1627069781414.03,-271.48,-42.48,-59.08,-67.87,339.35,101.56,440.91,True
1627069781417.93,-98.63,-36.13,-54.2,-55.66,154.29,90.33000000000001,244.62,True
1627069781421.84,176.76,-33.69,-40.53,-31.74,208.5,74.22,282.72,True
1627069781425.75,64.45,-26.86,-43.95,-58.11,122.56,70.81,193.37,True
1627069781429.65,-221.19,-14.16,-53.22,-95.21,316.4,67.38,383.78,True
1627069781433.56,-176.27,-21.97,-55.66,-80.08,256.35,77.63,333.98,True
1627069781437.46,116.7,-27.83,-47.36,-54.69,171.39,75.19,246.57999999999998,True
1627069781441.37,129.39,-23.93,-30.27,-67.38,196.76999999999998,54.2,250.97,True
1627069781445.28,-175.29,-29.3,-34.18,-101.56,276.85,63.480000000000004,340.33000000000004,True
1627069781449.18,-247.07,-27.83,-47.85,-93.26,340.33,75.68,416.01,True
1627069781453.09,38.09,-17.09,-36.62,-61.04,99.13,53.709999999999994,152.84,True
1627069781457.0,159.67,-13.67,-30.27,-54.69,214.35999999999999,43.94,258.29999999999995,True
1627069781460.9,-108.89,-23.44,-48.83,-83.01,191.9,72.27,264.17,True
1627069781464.81,-294.43,-36.62,-51.27,-96.68,391.11,87.89,479.0,True
1627069781468.71,-71.29,-40.04,-48.83,-66.89,138.18,88.87,227.05,True
1627069781472.62,156.25,-22.46,-41.02,-61.04,217.29,63.480000000000004,280.77,True
1627069781476.53,-28.32,-22.46,-42.48,-85.94,114.25999999999999,64.94,179.2,True
1627069781480.43,-296.39,-37.6,-53.71,-89.36,385.75,91.31,477.06,True
1627069781484.34,-160.64,-38.57,-43.46,-71.78,232.42,82.03,314.45,True
1627069781488.25,136.72,-33.2,-31.25,-58.59,195.31,64.45,259.76,True
1627069781492.15,62.01,-33.69,-37.11,-60.06,122.07,70.8,192.87,True
1627069781496.06,-244.63,-43.46,-45.41,-73.24,317.87,88.87,406.74,True
1627069781499.96,-232.42,-44.92,-38.09,-79.1,311.52,83.01,394.53,True
1627069781503.87,72.75,-42.48,-20.02,-58.11,130.86,62.5,193.36,True
1627069781507.78,114.26,-48.83,-24.9,-59.57,173.83,73.72999999999999,247.56000000000003,True
1627069781511.68,-190.43,-52.73,-43.95,-89.36,279.79,96.68,376.47,True
1627069781515.59,-282.23,-35.16,-35.16,-84.47,366.70000000000005,70.32,437.02,True
1627069781519.5,21.0,-13.18,-25.88,-77.15,98.15,39.06,137.21,True
1627069781523.4,169.92,-21.97,-30.27,-48.34,218.26,52.239999999999995,270.5,True
1627069781527.31,-98.63,-37.6,-31.74,-40.53,139.16,69.34,208.5,True
1627069781531.21,-280.27,-36.62,-34.67,-74.71,354.97999999999996,71.28999999999999,426.27,True
1627069781535.12,-64.45,-33.2,-36.13,-67.87,132.32,69.33000000000001,201.64999999999998,True
1627069781539.03,167.48,-33.69,-33.2,-11.23,178.70999999999998,66.89,245.59999999999997,True
1627069781542.93,-2.44,-55.66,-40.53,-7.32,9.76,96.19,105.95,True
1627069781546.84,-291.99,-51.76,-50.29,-45.9,337.89,102.05,439.94,True
1627069781550.75,-118.65,-11.72,-35.64,-2.44,121.09,47.36,168.45,True
1627069781554.65,198.24,-40.53,-15.14,76.17,274.41,55.67,330.08000000000004,True
1627069781558.56,96.19,-71.29,-50.29,27.83,124.02,121.58000000000001,245.6,True
1627069781562.46,-254.88,-51.27,-68.85,-65.92,320.8,120.12,440.91999999999996,True
1627069781566.37,-266.6,-44.92,-33.69,-53.22,319.82000000000005,78.61,398.43000000000006,True
1627069781570.28,83.01,-34.18,-17.09,22.95,105.96000000000001,51.269999999999996,157.23000000000002,True
1627069781574.18,144.53,-58.59,-34.67,-5.37,149.9,93.26,243.16000000000003,True
1627069781578.09,-194.82,-79.59,-62.5,-66.89,261.71,142.09,403.79999999999995,True
1627069781582.0,-313.48,-67.38,-71.29,-78.61,392.09000000000003,138.67000000000002,530.76,True
1627069781585.9,-46.39,-66.41,-51.27,-53.22,99.61,117.68,217.29,True
1627069781589.81,136.72,-68.36,-43.46,-25.39,162.11,111.82,273.93,True
1627069781593.71,-79.59,-83.01,-60.06,-32.23,111.82,143.07,254.89,True
1627069781597.62,-299.32,-104.98,-74.22,-39.55,338.87,179.2,518.07,True
1627069781601.53,-113.77,-117.68,-76.66,-4.39,118.16,194.34,312.5,True
1627069781605.43,140.63,-121.58,-58.11,-4.39,145.01999999999998,179.69,324.71,True
1627069781609.34,14.65,-126.46,-50.78,-47.36,62.01,177.24,239.25,True
1627069781613.25,-270.51,-131.35,-86.43,-77.64,348.15,217.78,565.9300000000001,False
1627069781617.15,-193.85,-134.28,-84.96,-45.41,239.26,219.24,458.49999999999994,True
1627069781621.06,120.61,-129.39,-64.45,19.53,140.14,193.83999999999997,333.97999999999996,True
1627069781624.96,101.07,-132.81,-75.68,23.93,125.0,208.49,333.49,True
1627069781628.87,-229.0,-147.95,-98.63,-18.07,247.07,246.57999999999998,493.65,True
1627069781632.78,-285.64,-138.18,-113.77,-41.5,327.14,251.95,579.09,False
1627069781636.68,-3.91,-119.14,-103.52,-19.04,22.95,222.66,245.61,True
1627069781640.59,81.05,-116.21,-98.14,-3.91,84.96,214.35,299.31,True
1627069781644.5,-205.08,-117.19,-108.89,-16.11,221.19,226.07999999999998,447.27,True
1627069781648.4,-352.05,-115.23,-111.33,-21.0,373.05,226.56,599.61,False
1627069781652.31,-82.03,-97.17,-83.01,0.49,82.52,180.18,262.7,True
1627069781656.21,121.58,-77.15,-66.41,2.93,124.51,143.56,268.07000000000005,True
1627069781660.12,-115.23,-80.57,-95.21,-18.55,133.78,175.77999999999997,309.56,True
1627069781664.03,-374.51,-83.01,-104.49,-28.32,402.83,187.5,590.3299999999999,False
1627069781667.93,-196.29,-53.22,-74.71,-24.9,221.19,127.92999999999999,349.11999999999995,True
1627069781671.84,87.4,-35.16,-62.5,-7.81,95.21000000000001,97.66,192.87,True
1627069781675.75,-34.67,-29.79,-75.68,-14.16,48.83,105.47,154.3,True
1627069781679.65,-334.47,-13.18,-87.4,-34.67,369.14000000000004,100.58000000000001,469.72,True
1627069781683.56,-273.44,-3.91,-83.5,-26.37,299.81,87.41,387.22,True
1627069781687.46,42.97,9.28,-70.31,-3.42,46.39,79.59,125.98,True
1627069781691.37,31.25,22.95,-70.8,-5.86,37.11,93.75,130.86,True
1627069781695.28,-278.32,20.02,-70.31,-6.84,285.15999999999997,90.33,375.48999999999995,True
1627069781699.18,-335.45,26.86,-55.18,31.25,366.7,82.03999999999999,448.74,True
1627069781703.09,-29.79,50.78,-46.88,56.15,85.94,97.66,183.6,True
1627069781707.0,87.89,50.78,-51.27,63.96,151.85,102.05000000000001,253.9,True
1627069781710.9,-205.08,49.32,-46.39,45.41,250.49,95.71000000000001,346.2,True
1627069781714.81,-367.19,51.27,-43.95,21.48,388.67,95.22,483.89,True
1627069781718.71,-107.42,53.71,-44.92,41.99,149.41,98.63,248.04000000000002,True
1627069781722.62,99.12,56.64,-45.41,58.11,157.23000000000002,102.05,259.28,True
1627069781726.53,-119.63,55.66,-42.48,39.06,158.69,98.13999999999999,256.83,True
1627069781730.43,-386.72,53.71,-54.69,18.07,404.79,108.4,513.19,True
1627069781734.34,-227.05,52.73,-64.94,43.95,271.0,117.66999999999999,388.67,True
1627069781738.25,71.78,49.32,-56.64,72.75,144.53,105.96000000000001,250.49,True
1627069781742.15,-25.88,46.39,-57.13,49.32,75.2,103.52000000000001,178.72,True
1627069781746.06,-327.15,43.95,-60.55,15.63,342.78,104.5,447.28,True
1627069781749.96,-287.11,39.06,-57.62,39.06,326.17,96.68,422.85,True
1627069781753.87,46.39,36.13,-44.92,75.68,122.07000000000001,81.05000000000001,203.12,True
1627069781757.78,82.03,38.09,-33.2,63.96,145.99,71.29,217.28000000000003,True
1627069781761.68,-235.35,38.09,-41.02,44.92,280.27,79.11000000000001,359.38,True
1627069781765.59,-309.08,37.6,-51.27,41.5,350.58,88.87,439.45,True
1627069781769.5,16.6,45.9,-38.57,54.2,70.80000000000001,84.47,155.27,True
1627069781773.4,177.73,44.92,-21.48,60.06,237.79,66.4,304.19,True
1627069781777.31,-97.66,29.3,-33.2,33.2,130.86,62.5,193.36,True
1627069781781.21,-298.34,17.58,-56.64,13.18,311.52,74.22,385.73999999999995,True
1627069781785.12,-60.55,25.39,-52.25,24.41,84.96,77.64,162.6,True
1627069781789.03,195.31,23.93,-39.06,43.46,238.77,62.99,301.76,True
1627069781792.93,7.32,14.16,-39.55,25.88,33.2,53.709999999999994,86.91,True
1627069781796.84,-283.69,7.32,-55.66,10.74,294.43,62.98,357.40999999999997,True
1627069781800.75,-161.62,23.44,-45.9,24.9,186.52,69.34,255.86,True
1627069781804.65,151.86,33.69,-30.76,35.64,187.5,64.45,251.95,True
1627069781808.56,101.56,11.72,-37.6,21.0,122.56,49.32,171.88,True
1627069781812.46,-218.26,13.18,-45.41,-15.14,233.39999999999998,58.589999999999996,291.99,True
1627069781816.37,-215.33,28.81,-43.46,-3.42,218.75,72.27,291.02,True
1627069781820.28,112.3,25.88,-28.81,31.74,144.04,54.69,198.73,True
1627069781824.18,168.46,21.97,-30.76,36.13,204.59,52.730000000000004,257.32,True
1627069781828.09,-136.72,19.04,-50.29,1.46,138.18,69.33,207.51,True
1627069781832.0,-245.61,20.51,-41.5,-8.3,253.91000000000003,62.010000000000005,315.92,True
1627069781835.9,46.88,24.9,-22.95,27.83,74.71000000000001,47.849999999999994,122.56000000000002,True
1627069781839.81,221.68,23.44,-16.6,40.53,262.21000000000004,40.040000000000006,302.25000000000006,True
1627069781843.71,-36.62,3.91,-32.23,30.76,67.38,36.14,103.51999999999998,True
1627069781847.62,-253.42,9.77,-24.41,12.7,266.12,34.18,300.3,True
1627069781851.53,-29.3,21.48,-11.72,36.13,65.43,33.2,98.63000000000001,True
1627069781855.43,241.21,8.79,-17.09,59.08,300.29,25.88,326.17,True
1627069781859.34,81.05,5.37,-21.0,28.81,109.86,26.37,136.23000000000002,True
1627069781863.25,-215.82,2.93,-32.23,-1.95,217.76999999999998,35.16,252.92999999999998,True
1627069781867.15,-111.82,-5.86,-32.23,16.11,127.92999999999999,38.089999999999996,166.01999999999998,True
1627069781871.06,193.85,-10.74,-25.39,41.5,235.35,36.13,271.48,True
1627069781874.96,151.86,-4.88,-28.81,28.81,180.67000000000002,33.69,214.36,True
1627069781878.87,-163.57,-10.25,-41.99,5.37,168.94,52.24,221.18,True
1627069781882.78,-195.8,-17.58,-51.76,10.25,206.05,69.34,275.39,True
1627069781886.68,122.07,-10.25,-42.97,59.08,181.14999999999998,53.22,234.36999999999998,True
1627069781890.59,220.7,-2.93,-27.83,46.88,267.58,30.759999999999998,298.34,True
1627069781894.5,-80.08,-4.39,-30.27,-13.67,93.75,34.66,128.41,True
1627069781898.4,-231.45,-11.72,-38.09,-14.16,245.60999999999999,49.81,295.41999999999996,True
1627069781902.31,42.97,-17.58,-36.62,21.97,64.94,54.199999999999996,119.13999999999999,True
1627069781906.21,258.3,-5.37,-20.51,27.83,286.13,25.880000000000003,312.01,True
1627069781910.12,20.02,-1.95,-22.95,-3.91,23.93,24.9,48.83,True
1627069781914.03,-238.77,-7.81,-39.06,-37.11,275.88,46.870000000000005,322.75,True
1627069781917.93,-41.99,-2.44,-32.23,-19.04,61.03,34.669999999999995,95.69999999999999,True
1627069781921.84,244.63,7.81,-18.07,15.14,259.77,25.88,285.65,True
1627069781925.75,104.98,1.95,-25.88,-3.91,108.89,27.83,136.72,True
1627069781929.65,-198.73,-8.3,-41.99,-30.76,229.48999999999998,50.290000000000006,279.78,True
1627069781933.56,-133.3,-0.49,-32.23,-12.7,146.0,32.72,178.72,True
1627069781937.46,186.52,10.25,-24.9,-7.32,193.84,35.15,228.99,True
1627069781941.37,184.08,8.79,-33.2,-22.46,206.54000000000002,41.99,248.53000000000003,True
1627069781945.28,-138.67,-0.49,-39.55,-33.69,172.35999999999999,40.04,212.39999999999998,True
1627069781949.18,-200.68,-9.28,-37.11,-37.11,237.79000000000002,46.39,284.18,True
1627069781953.09,112.3,-11.23,-23.93,-31.74,144.04,35.16,179.2,True
1627069781957.0,246.58,-12.21,-21.48,-20.51,267.09000000000003,33.69,300.78000000000003,True
1627069781960.9,-46.39,-14.16,-37.11,-30.76,77.15,51.269999999999996,128.42000000000002,True
1627069781964.81,-237.3,-13.67,-39.55,-48.34,285.64,53.22,338.86,True
1627069781968.71,20.02,-14.65,-29.3,-21.97,41.989999999999995,43.95,85.94,True
1627069781972.62,269.53,-5.86,-22.95,11.23,280.76,28.81,309.57,True
1627069781976.53,64.94,-9.77,-34.67,-1.46,66.39999999999999,44.44,110.83999999999999,True
1627069781980.43,-211.91,-20.02,-40.04,-21.0,232.91,60.06,292.97,True
1627069781984.34,-54.69,-14.65,-26.86,-7.32,62.01,41.51,103.52,True
1627069781988.25,247.07,-17.09,-16.6,7.81,254.88,33.69,288.57,True
1627069781992.15,151.86,-26.86,-31.25,10.25,162.11,58.11,220.22000000000003,True
1627069781996.06,-160.64,-22.95,-36.62,-10.74,171.38,59.56999999999999,230.95,True
1627069781999.96,-128.91,-27.34,-32.71,-10.25,139.16,60.05,199.21,True
1627069782003.87,194.82,-21.0,-26.86,24.9,219.72,47.86,267.58,True
1627069782007.78,242.19,-12.21,-25.88,26.86,269.05,38.09,307.14,True
1627069782011.68,-69.34,-13.67,-23.44,0.0,69.34,37.11,106.45,True
1627069782015.59,-176.76,-15.14,-23.44,-7.32,184.07999999999998,38.58,222.65999999999997,True
1627069782019.5,114.75,-15.63,-21.0,5.86,120.61,36.63,157.24,True
1627069782023.4,267.09,-13.67,-20.51,12.7,279.78999999999996,34.18,313.96999999999997,True
1627069782027.31,-8.3,-15.14,-25.88,-11.23,19.53,41.019999999999996,60.55,True
1627069782031.21,-222.66,-16.11,-30.76,-41.99,264.65,46.870000000000005,311.52,True
1627069782035.12,13.18,-19.04,-40.53,-2.93,16.11,59.57,75.68,True
1627069782039.03,272.46,-19.53,-30.76,31.25,303.71,50.290000000000006,354.0,True
1627069782042.93,78.13,-15.14,-17.58,-9.28,87.41,32.72,120.13,True
1627069782046.84,-225.59,-28.32,-32.23,-26.37,251.96,60.55,312.51000000000005,True
1627069782050.75,-94.73,-39.06,-39.06,-9.77,104.5,78.12,182.62,True
1627069782054.65,213.38,-35.16,-21.48,0.98,214.35999999999999,56.64,271.0,True
1627069782058.56,145.51,-38.09,-21.48,-10.74,156.25,59.57000000000001,215.82,True
1627069782062.46,-180.18,-47.85,-40.53,-47.85,228.03,88.38,316.40999999999997,True
1627069782066.37,-186.52,-53.71,-48.34,-43.46,229.98000000000002,102.05000000000001,332.03,True
1627069782070.28,127.93,-49.8,-38.57,-15.14,143.07,88.37,231.44,True
1627069782074.18,189.45,-44.92,-37.11,-16.6,206.04999999999998,82.03,288.08,True
1627069782078.09,-128.42,-59.57,-51.76,-52.73,181.14999999999998,111.33,292.47999999999996,True
1627069782082.0,-254.88,-78.61,-56.15,-48.83,303.71,134.76,438.46999999999997,True
1627069782085.9,41.02,-61.04,-44.43,-15.14,56.160000000000004,105.47,161.63,True
1627069782089.81,220.21,-44.92,-25.39,-20.02,240.23000000000002,70.31,310.54,True
1627069782093.71,-46.88,-54.69,-41.5,-53.22,100.1,96.19,196.29,True
1627069782097.62,-276.37,-47.85,-48.83,-64.45,340.82,96.68,437.5,True
1627069782101.53,-51.27,-27.34,-24.41,-31.74,83.01,51.75,134.76000000000002,True
1627069782105.43,227.05,-16.6,-25.88,-7.81,234.86,42.480000000000004,277.34000000000003,True
1627069782109.34,74.71,-8.3,-32.71,-17.58,92.28999999999999,41.010000000000005,133.29999999999998,True
1627069782113.25,-224.61,-9.77,-40.04,-48.34,272.95000000000005,49.81,322.76000000000005,True
1627069782117.15,-135.25,-3.42,-44.43,-44.43,179.68,47.85,227.53,True
1627069782121.06,183.59,16.11,-28.32,-15.63,199.22,44.43,243.64999999999998,True
1627069782124.96,162.11,9.28,-36.62,-20.02,182.13000000000002,45.9,228.03000000000003,True
1627069782128.87,-157.71,0.0,-41.99,-37.6,195.31,41.99,237.3,True
1627069782132.78,-201.17,12.21,-17.58,-39.55,240.71999999999997,29.79,270.51,True
1627069782136.68,111.82,19.04,-15.14,-38.57,150.39,34.18,184.57,True
1627069782140.59,207.52,17.09,-29.79,-44.92,252.44,46.879999999999995,299.32,True
1627069782144.5,-104.98,7.32,-38.09,-73.24,178.22,45.410000000000004,223.63,True
1627069782148.4,-263.18,5.37,-36.13,-74.22,337.4,41.5,378.9,True
1627069782152.31,24.41,9.77,-27.83,-34.18,58.59,37.599999999999994,96.19,True
1627069782156.21,235.35,9.77,-32.23,-20.02,255.37,42.0,297.37,True
1627069782160.12,-1.95,14.65,-36.62,-56.64,58.59,51.269999999999996,109.86000000000001,True
1627069782164.03,-256.84,11.72,-39.55,-68.36,325.2,51.269999999999996,376.47,True
1627069782167.93,-67.38,4.88,-30.76,-57.13,124.50999999999999,35.64,160.14999999999998,True
1627069782171.84,230.96,-5.37,-21.48,-31.74,262.7,26.85,289.55,True
1627069782175.75,102.05,3.91,-21.97,-42.97,145.01999999999998,25.88,170.89999999999998,True
1627069782179.65,-222.66,8.3,-28.81,-88.38,311.03999999999996,37.11,348.15,True
1627069782183.56,-169.92,0.49,-37.11,-74.22,244.14,37.6,281.74,True
1627069782187.46,159.18,-2.44,-35.64,-38.09,197.27,38.08,235.35000000000002,True
1627069782191.37,174.32,0.49,-13.18,-45.9,220.22,13.67,233.89000000000001,True
1627069782195.28,-157.23,1.46,-23.93,-79.59,236.82,25.39,262.21,True
1627069782199.18,-233.89,-2.93,-39.55,-87.89,321.78,42.48,364.26,True
1627069782203.09,89.84,1.46,-19.04,-65.43,155.27,20.5,175.77,True
1627069782207.0,221.68,13.67,-13.67,-60.55,282.23,27.34,309.57000000000005,True
1627069782210.9,-78.13,7.81,-33.69,-94.24,172.37,41.5,213.87,True
1627069782214.81,-263.67,-4.88,-49.8,-112.79,376.46000000000004,54.68,431.14000000000004,True
1627069782218.71,12.7,-4.39,-45.9,-76.66,89.36,50.29,139.65,True
1627069782222.62,260.25,3.91,-24.9,-58.11,318.36,28.81,347.17,True
1627069782226.53,37.6,0.98,-40.04,-73.73,111.33000000000001,41.019999999999996,152.35000000000002,True
1627069782230.43,-247.07,-14.65,-54.69,-94.24,341.31,69.34,410.65,True
1627069782234.34,-95.21,-19.04,-42.97,-80.08,175.29,62.01,237.29999999999998,True
1627069782238.25,218.26,-5.37,-20.51,-50.29,268.55,25.880000000000003,294.43,True
1627069782242.15,132.81,-8.79,-22.95,-59.08,191.89,31.74,223.62999999999997,True
1627069782246.06,-191.41,-25.88,-43.46,-73.24,264.65,69.34,333.98999999999995,True
1627069782249.96,-162.6,-13.18,-30.76,-64.94,227.54,43.94,271.48,True
1627069782253.87,198.24,0.0,-19.53,-19.53,217.77,19.53,237.3,True
1627069782257.78,222.17,-5.86,-23.93,-18.07,240.23999999999998,29.79,270.03,True
1627069782261.68,-146.0,-18.55,-37.11,-56.64,202.64,55.66,258.3,True
1627069782265.59,-240.23,-20.02,-35.16,-73.24,313.46999999999997,55.17999999999999,368.65,True
1627069782269.5,69.82,-14.65,-30.76,-62.5,132.32,45.410000000000004,177.73,True
1627069782273.4,215.33,-22.95,-39.06,-60.06,275.39,62.010000000000005,337.4,True
1627069782277.31,-75.68,-31.74,-52.25,-82.52,158.2,83.99,242.19,True
1627069782281.21,-295.41,-29.3,-61.52,-95.21,390.62,90.82000000000001,481.44,True
1627069782285.12,-52.25,-34.67,-55.18,-84.96,137.20999999999998,89.85,227.06,True
1627069782289.03,206.54,-32.71,-61.04,-71.29,277.83,93.75,371.58,True
1627069782292.93,17.58,-27.34,-72.75,-87.4,104.98,100.09,205.07,True
1627069782296.84,-273.93,-27.34,-62.99,-103.52,377.45,90.33,467.78,True
1627069782300.75,-146.48,-24.9,-50.78,-86.91,233.39,75.68,309.06999999999994,True
1627069782304.65,170.41,-28.81,-57.13,-62.99,233.4,85.94,319.34,True
1627069782308.56,106.45,-34.67,-66.89,-51.76,158.21,101.56,259.77,True
1627069782312.46,-221.68,-34.18,-57.13,-84.96,306.64,91.31,397.95,True
1627069782316.37,-234.38,-33.69,-62.5,-101.56,335.94,96.19,432.13,True
1627069782320.28,93.75,-31.25,-59.57,-77.64,171.39,90.82,262.21,True
1627069782324.18,168.95,-28.32,-49.8,-74.71,243.65999999999997,78.12,321.78,True
1627069782328.09,-148.93,-30.76,-61.52,-106.45,255.38,92.28,347.65999999999997,True
1627069782332.0,-280.76,-32.71,-64.45,-111.33,392.09,97.16,489.24999999999994,True
1627069782335.9,16.11,-30.76,-56.64,-79.1,95.21,87.4,182.61,True
1627069782339.81,203.61,-18.07,-45.41,-56.15,259.76,63.48,323.24,True
1627069782343.71,-62.01,-20.51,-41.5,-74.71,136.72,62.010000000000005,198.73,True
1627069782347.62,-269.53,-32.71,-41.02,-83.98,353.51,73.73,427.23999999999995,True
1627069782351.53,-64.94,-36.62,-33.2,-52.25,117.19,69.82,187.01,True
1627069782355.43,187.99,-31.74,-27.83,-45.41,233.4,59.56999999999999,292.96999999999997,True
1627069782359.34,32.71,-25.39,-33.2,-69.82,102.53,58.59,161.12,True
1627069782363.25,-273.44,-28.32,-49.32,-80.08,353.52,77.64,431.15999999999997,True
1627069782367.15,-171.39,-33.2,-65.43,-60.06,231.45,98.63000000000001,330.08,True
1627069782371.06,145.51,-20.51,-46.39,-34.67,180.18,66.9,247.07999999999998,True
1627069782374.96,115.72,-22.46,-36.62,-43.46,159.18,59.08,218.26000000000002,True
1627069782378.87,-209.96,-30.27,-42.97,-65.92,275.88,73.24,349.12,True
1627069782382.78,-249.51,-25.88,-44.92,-59.57,309.08,70.8,379.88,True
1627069782386.68,71.78,-18.55,-41.02,-39.06,110.84,59.57000000000001,170.41000000000003,True
1627069782390.59,165.53,-15.14,-21.48,-33.69,199.22,36.620000000000005,235.84,True
1627069782394.5,-142.58,-29.3,-22.95,-57.62,200.20000000000002,52.25,252.45000000000002,True
1627069782398.4,-303.22,-38.57,-35.16,-69.82,373.04,73.72999999999999,446.77,True
1627069782402.31,-16.11,-18.55,-27.34,-33.69,49.8,45.89,95.69,True
1627069782406.21,204.59,-9.77,-19.04,-11.72,216.31,28.81,245.12,True
1627069782410.12,-40.04,-21.97,-36.13,-27.83,67.87,58.1,125.97,True
1627069782414.03,-306.15,-35.16,-53.71,-29.79,335.94,88.87,424.81,True
1627069782417.93,-114.26,-18.07,-21.48,-24.41,138.67000000000002,39.55,178.22,True
1627069782421.84,180.66,-19.04,-16.11,-36.62,217.28,35.15,252.43,True
1627069782425.75,33.69,-49.32,-41.02,-57.13,90.82,90.34,181.16,True
1627069782429.65,-312.99,-48.83,-26.86,-77.15,390.14,75.69,465.83,True
1627069782433.56,-267.58,-31.25,-17.09,-98.14,365.71999999999997,48.34,414.05999999999995,True
1627069782437.46,48.34,-35.16,-33.69,-116.7,165.04000000000002,68.85,233.89000000000001,True
1627069782441.37,25.39,-44.43,-35.16,-132.32,157.70999999999998,79.59,237.29999999999998,True
1627069782445.28,-335.45,-43.95,-33.2,-179.2,514.65,77.15,591.8000000000001,False
1627069782449.18,-431.15,-39.55,-30.76,-213.38,644.53,70.31,714.8399999999999,False
1627069782453.09,-134.77,-40.53,-14.16,-207.03,341.8,54.69,396.49000000000007,True
1627069782457.0,-12.7,-41.5,-10.74,-199.22,211.92,52.24,264.15999999999997,True
1627069782460.9,-324.71,-30.76,-6.84,-256.35,581.06,37.6,618.66,False
1627069782464.81,-564.45,-21.97,-6.35,-322.75,887.2,28.32,915.5200000000001,False
1627069782468.71,-317.87,-21.0,-11.72,-322.27,640.14,32.72,672.86,False
1627069782472.62,-73.73,-19.04,-0.98,-312.5,386.23,20.02,406.25000000000006,True
1627069782476.53,-308.11,-13.67,1.46,-358.89,667.0,15.129999999999999,682.13,False
1627069782480.43,-596.68,-19.53,-1.95,-384.28,980.9599999999999,21.48,1002.4399999999999,False
1627069782484.34,-431.15,-19.53,-10.25,-364.26,795.41,29.78,825.1899999999999,False
1627069782488.25,-108.4,-3.42,-19.53,-355.47,463.87,22.950000000000003,486.82000000000005,True
1627069782492.15,-179.69,0.98,-19.53,-352.05,531.74,20.51,552.25,False
1627069782496.06,-496.58,-15.63,-21.48,-346.68,843.26,37.11,880.37,False
1627069782499.96,-446.29,-18.07,-19.04,-312.5,758.79,37.11,795.9,False
1627069782503.87,-80.57,2.93,-13.18,-267.09,347.65999999999997,16.11,363.77,True
1627069782507.78,-16.6,15.14,-9.28,-246.09,262.69,24.42,287.10999999999996,True
1627069782511.68,-316.41,-8.3,-15.63,-235.84,552.25,23.93,576.18,False
1627069782515.59,-400.39,-31.25,-30.27,-214.36,614.75,61.519999999999996,676.27,False
1627069782519.5,-66.89,-18.55,-25.39,-163.09,229.98000000000002,43.94,273.92,True
1627069782523.4,126.95,-8.79,-20.51,-137.7,264.65,29.3,293.95,True
1627069782527.31,-128.42,-19.04,-40.04,-134.77,263.19,59.08,322.27000000000004,True
1627069782531.21,-327.15,-25.88,-46.88,-116.21,443.35999999999996,72.76,516.12,True
1627069782535.12,-63.96,-20.51,-33.69,-79.59,143.55,54.2,197.75,True
1627069782539.03,220.21,-19.53,-28.32,-47.85,268.06,47.85,315.91,True
1627069782542.93,39.55,-27.34,-36.62,-32.71,72.25999999999999,63.959999999999994,136.22,True
1627069782546.84,-247.07,-34.67,-48.34,-19.53,266.6,83.01,349.61,True
1627069782550.75,-113.77,-30.27,-36.13,-21.48,135.25,66.4,201.65,True
1627069782554.65,215.33,-24.41,-24.41,-12.7,228.03,48.82,276.85,True
1627069782558.56,159.67,-31.74,-35.64,-26.86,186.52999999999997,67.38,253.90999999999997,True
1627069782562.46,-166.02,-33.2,-43.46,-66.89,232.91000000000003,76.66,309.57,True
1627069782566.37,-169.92,-33.2,-48.83,-70.8,240.71999999999997,82.03,322.74999999999994,True
1627069782570.28,164.55,-36.62,-48.34,-54.2,218.75,84.96000000000001,303.71000000000004,True
1627069782574.18,234.38,-32.23,-48.83,-63.96,298.34,81.06,379.4,True
1627069782578.09,-78.13,-35.16,-50.78,-98.14,176.26999999999998,85.94,262.21,True
1627069782582.0,-197.27,-43.95,-59.57,-116.7,313.97,103.52000000000001,417.49,True
1627069782585.9,98.63,-39.55,-56.64,-95.7,194.32999999999998,96.19,290.52,True
1627069782589.81,289.55,-35.64,-45.9,-75.2,364.75,81.53999999999999,446.28999999999996,True
1627069782593.71,20.02,-41.5,-56.15,-92.29,112.31,97.65,209.96,True
1627069782597.62,-224.61,-37.11,-49.8,-127.93,352.54,86.91,439.45000000000005,True
1627069782601.53,0.98,-21.0,-38.57,-111.82,112.8,59.57,172.37,True
1627069782605.43,286.13,-10.74,-36.13,-94.24,380.37,46.870000000000005,427.24,True
1627069782609.34,124.02,-13.18,-36.62,-119.63,243.64999999999998,49.8,293.45,True
1627069782613.25,-186.04,-19.04,-43.95,-138.67,324.71,62.99,387.7,True
1627069782617.15,-99.61,-23.44,-40.53,-120.12,219.73000000000002,63.97,283.70000000000005,True
1627069782621.06,230.96,-27.34,-29.79,-85.94,316.9,57.129999999999995,374.03,True
1627069782624.96,202.15,-24.41,-27.83,-94.24,296.39,52.239999999999995,348.63,True
1627069782628.87,-140.14,-21.0,-34.67,-119.14,259.28,55.67,314.95,True
1627069782632.78,-178.22,-19.04,-39.55,-106.45,284.67,58.589999999999996,343.26000000000005,True
1627069782636.68,159.18,-19.04,-34.67,-64.45,223.63,53.71,277.34,True
1627069782640.59,271.0,-15.63,-27.83,-62.99,333.99,43.46,377.45,True
1627069782644.5,-58.59,-15.14,-34.18,-107.42,166.01,49.32,215.32999999999998,True
1627069782648.4,-225.1,-15.14,-47.36,-107.91,333.01,62.5,395.51,True
1627069782652.31,66.41,-8.3,-42.97,-66.41,132.82,51.269999999999996,184.09,True
1627069782656.21,277.34,-5.37,-23.44,-62.01,339.34999999999997,28.810000000000002,368.15999999999997,True
1627069782660.12,33.2,-9.77,-26.86,-92.77,125.97,36.629999999999995,162.60000000000002,True
1627069782664.03,-241.7,-21.0,-38.57,-113.28,354.98,59.57,414.55,True
1627069782667.93,-62.99,-29.3,-35.64,-89.36,152.35,64.94,217.29000000000002,True
1627069782671.84,247.07,-27.83,-29.79,-70.31,317.38,57.62,375.0,True
1627069782675.75,120.61,-30.76,-37.6,-95.7,216.31,68.36,284.67,True
1627069782679.65,-207.03,-31.74,-50.29,-105.47,312.5,82.03,394.53000000000003,True
1627069782683.56,-155.76,-29.3,-41.99,-81.54,237.3,71.29,308.59000000000003,True
1627069782687.46,174.32,-21.97,-21.48,-67.87,242.19,43.45,285.64,True
1627069782691.37,185.55,-19.53,-30.27,-71.29,256.84000000000003,49.8,306.64,True
1627069782695.28,-158.69,-30.27,-44.92,-89.36,248.05,75.19,323.24,True
1627069782699.18,-245.12,-34.67,-30.27,-100.1,345.22,64.94,410.16,True
1627069782703.09,82.52,-12.7,-9.77,-80.57,163.08999999999997,22.47,185.55999999999997,True
1627069782707.0,223.63,-2.93,-6.35,-65.43,289.06,9.28,298.34000000000003,True
1627069782710.9,-85.45,-18.07,-26.37,-80.57,166.01999999999998,44.44,210.45999999999998,True
1627069782714.81,-271.48,-15.63,-30.27,-95.7,367.18,45.9,413.08,True
1627069782718.71,2.44,-6.35,-23.44,-79.59,82.03,29.79,111.82,True
1627069782722.62,233.4,-4.39,-23.44,-50.29,283.69,27.830000000000002,311.52,True
1627069782726.53,23.93,-19.04,-37.6,-65.92,89.85,56.64,146.48999999999998,True
1627069782730.43,-254.39,-15.14,-47.36,-109.86,364.25,62.5,426.75,True
1627069782734.34,-91.8,-6.84,-30.76,-105.47,197.26999999999998,37.6,234.86999999999998,True
1627069782738.25,241.7,-8.3,-21.48,-81.54,323.24,29.78,353.02000000000004,True
1627069782742.15,153.81,-7.81,-35.64,-65.92,219.73000000000002,43.45,263.18,True
1627069782746.06,-171.88,-1.46,-33.2,-84.96,256.84,34.660000000000004,291.49999999999994,True
1627069782749.96,-145.02,-6.35,-27.83,-81.54,226.56,34.18,260.74,True
1627069782753.87,189.94,-6.35,-21.97,-46.39,236.32999999999998,28.32,264.65,True
1627069782757.78,235.84,2.93,-24.41,-45.9,281.74,27.34,309.08000000000004,True
1627069782761.68,-100.1,0.0,-33.2,-68.85,168.95,33.2,202.14999999999998,True
1627069782765.59,-209.96,-3.42,-28.81,-71.78,281.74,32.23,313.97,True
1627069782769.5,112.79,-6.35,-23.93,-47.36,160.15,30.28,190.43,True
1627069782773.4,271.0,-6.84,-29.79,-32.71,303.71,36.629999999999995,340.34,True
1627069782777.31,-38.09,-2.93,-28.81,-67.38,105.47,31.74,137.21,True
1627069782781.21,-274.9,-3.91,-21.97,-89.84,364.74,25.88,390.62,True
1627069782785.12,-28.81,-6.35,-21.97,-57.13,85.94,28.32,114.25999999999999,True
1627069782789.03,240.72,0.49,-19.53,-29.3,270.02,20.02,290.03999999999996,True
1627069782792.93,46.39,7.81,-17.09,-49.32,95.71000000000001,24.9,120.61000000000001,True
1627069782796.84,-266.6,0.98,-28.81,-68.85,335.45000000000005,29.79,365.24000000000007,True
1627069782800.75,-148.44,-1.46,-30.76,-48.83,197.26999999999998,32.22,229.48999999999998,True
1627069782804.65,181.15,0.49,-20.02,-25.88,207.03,20.509999999999998,227.54000000000002,True
1627069782808.56,125.98,-15.14,-27.83,-48.34,174.32,42.97,217.28999999999996,True
1627069782812.46,-209.47,-9.77,-42.97,-76.66,286.13,52.739999999999995,338.87,True
1627069782816.37,-218.75,-2.44,-46.39,-70.8,289.55,48.83,338.38,True
1627069782820.28,128.42,1.46,-30.27,-48.83,177.25,31.73,208.98000000000002,True
1627069782824.18,196.78,6.84,-21.48,-62.01,258.79,28.32,287.11,True
1627069782828.09,-139.65,-9.28,-37.11,-89.36,229.01,46.39,275.4,True
1627069782832.0,-273.44,-22.95,-48.34,-70.31,343.75,71.29,415.03999999999996,True
1627069782835.9,36.62,-9.28,-24.41,-46.39,83.00999999999999,33.69,116.69999999999999,True
1627069782839.81,233.4,1.46,-15.14,-56.15,289.55,16.6,306.15,True
1627069782843.71,-25.88,-8.79,-32.71,-60.55,86.42999999999999,41.5,127.93,True
1627069782847.62,-269.04,-19.04,-39.06,-75.2,344.24,58.1,402.34000000000003,True
1627069782851.53,-62.99,-16.11,-40.53,-64.94,127.93,56.64,184.57000000000002,True
1627069782855.43,236.82,-1.46,-33.2,-45.41,282.23,34.660000000000004,316.89,True
1627069782859.34,81.54,0.0,-38.57,-62.5,144.04000000000002,38.57,182.61,True
1627069782863.25,-254.39,-13.18,-54.2,-86.43,340.82,67.38,408.2,True
1627069782867.15,-159.67,-15.63,-57.62,-72.27,231.94,73.25,305.19,True
1627069782871.06,189.45,-7.81,-52.25,-54.69,244.14,60.06,304.2,True
1627069782874.96,148.44,-20.51,-62.5,-74.22,222.66,83.01,305.66999999999996,True
1627069782878.87,-210.45,-35.16,-82.03,-83.01,293.46,117.19,410.65,True
1627069782882.78,-253.42,-23.93,-70.8,-95.7,349.12,94.72999999999999,443.85,True
1627069782886.68,87.89,-20.02,-60.06,-83.98,171.87,80.08,251.95000000000002,True
1627069782890.59,215.33,-16.6,-63.96,-60.55,275.88,80.56,356.44,True
1627069782894.5,-110.35,-15.14,-62.99,-93.75,204.1,78.13,282.23,True
1627069782898.4,-302.25,-25.88,-55.18,-122.56,424.81,81.06,505.87,True
1627069782902.31,-8.3,-16.11,-45.9,-90.82,99.11999999999999,62.01,161.13,True
1627069782906.21,226.07,-12.7,-44.92,-67.38,293.45,57.620000000000005,351.07,True
1627069782910.12,-23.93,-15.63,-48.34,-100.59,124.52000000000001,63.970000000000006,188.49,True
1627069782914.03,-293.46,-7.32,-57.13,-111.33,404.78999999999996,64.45,469.23999999999995,True
1627069782917.93,-104.49,-11.23,-55.18,-86.91,191.39999999999998,66.41,257.80999999999995,True
1627069782921.84,207.52,-11.72,-45.41,-59.57,267.09000000000003,57.129999999999995,324.22,True
1627069782925.75,90.33,-2.44,-41.02,-87.89,178.22,43.46,221.68,True
1627069782929.65,-238.77,-1.46,-47.85,-129.39,368.15999999999997,49.31,417.46999999999997,True
1627069782933.56,-183.59,-10.25,-50.29,-112.3,295.89,60.54,356.43,True
1627069782937.46,158.2,-10.25,-43.46,-74.22,232.42,53.71,286.13,True
1627069782941.37,171.39,0.0,-30.27,-90.82,262.21,30.27,292.47999999999996,True
1627069782945.28,-168.95,0.0,-45.9,-132.32,301.27,45.9,347.16999999999996,True
1627069782949.18,-245.61,-6.35,-62.01,-125.0,370.61,68.36,438.97,True
1627069782953.09,83.01,-5.37,-41.5,-95.7,178.71,46.87,225.58,True
1627069782957.0,224.12,0.0,-37.6,-93.75,317.87,37.6,355.47,True
1627069782960.9,-72.27,-4.88,-55.18,-109.38,181.64999999999998,60.06,241.70999999999998,True
1627069782964.81,-266.11,-17.58,-57.13,-109.38,375.49,74.71000000000001,450.2,True
1627069782968.71,2.44,-15.63,-45.41,-77.64,80.08,61.04,141.12,True
1627069782972.62,242.19,-8.79,-26.37,-82.52,324.71,35.16,359.87,True
1627069782976.53,13.67,-14.65,-33.69,-114.75,128.42,48.339999999999996,176.76,True
1627069782980.43,-282.71,-26.37,-49.8,-130.37,413.08,76.17,489.25,True
1627069782984.34,-125.49,-18.55,-40.04,-118.65,244.14,58.59,302.73,True
1627069782988.25,195.31,-13.67,-35.64,-100.1,295.40999999999997,49.31,344.71999999999997,True
1627069782992.15,103.03,-18.55,-48.83,-101.07,204.1,67.38,271.48,True
1627069782996.06,-237.79,-25.39,-62.5,-120.12,357.90999999999997,87.89,445.79999999999995,True
1627069782999.96,-216.31,-22.46,-52.25,-120.61,336.92,74.71000000000001,411.63,True
1627069783003.87,125.98,-6.35,-36.13,-93.75,219.73000000000002,42.480000000000004,262.21000000000004,True
1627069783007.78,167.97,-12.7,-35.64,-97.17,265.14,48.34,313.47999999999996,True
1627069783011.68,-169.43,-28.32,-42.97,-117.68,287.11,71.28999999999999,358.4,True
1627069783015.59,-280.76,-21.0,-35.64,-125.0,405.76,56.64,462.4,True
1627069783019.5,29.79,-23.44,-24.41,-118.65,148.44,47.85,196.29,True
1627069783023.4,199.71,-34.67,-29.3,-107.91,307.62,63.97,371.59000000000003,True
1627069783027.31,-81.54,-35.64,-33.2,-121.09,202.63,68.84,271.46999999999997,True
1627069783031.21,-311.04,-34.67,-29.79,-136.72,447.76,64.46000000000001,512.22,True
1627069783035.12,-77.15,-33.69,-19.04,-114.75,191.9,52.73,244.63,True
1627069783039.03,191.41,-41.02,-21.48,-86.43,277.84000000000003,62.5,340.34000000000003,True
1627069783042.93,3.91,-41.5,-35.64,-109.86,113.77,77.14,190.90999999999997,True
1627069783046.84,-304.2,-39.06,-39.55,-137.7,441.9,78.61,520.51,True
1627069783050.75,-175.29,-47.36,-37.11,-111.82,287.11,84.47,371.58000000000004,True
1627069783054.65,165.53,-45.9,-28.81,-73.24,238.76999999999998,74.71,313.47999999999996,True
1627069783058.56,108.4,-40.53,-25.39,-65.43,173.83,65.92,239.75,True
1627069783062.46,-229.98,-36.62,-21.48,-106.93,336.90999999999997,58.099999999999994,395.01,True
1627069783066.37,-237.79,-37.6,-29.79,-115.23,353.02,67.39,420.41,True
1627069783070.28,106.93,-35.64,-34.18,-71.78,178.71,69.82,248.53000000000003,True
1627069783074.18,182.13,-30.76,-23.44,-66.89,249.01999999999998,54.2,303.21999999999997,True
1627069783078.09,-150.88,-27.34,-21.0,-97.66,248.54,48.34,296.88,True
1627069783082.0,-288.09,-28.81,-23.93,-92.29,380.38,52.739999999999995,433.12,True
1627069783085.9,20.02,-31.74,-20.02,-51.27,71.29,51.76,123.05,True
1627069783089.81,223.63,-22.95,-10.74,-45.9,269.53,33.69,303.21999999999997,True
1627069783093.71,-53.71,-22.95,-23.44,-73.24,126.94999999999999,46.39,173.33999999999997,True
1627069783097.62,-318.85,-37.6,-36.62,-94.73,413.58000000000004,74.22,487.80000000000007,True
1627069783101.53,-110.84,-44.92,-33.69,-69.34,180.18,78.61,258.79,True
1627069783105.43,188.96,-41.02,-21.0,-46.88,235.84,62.02,297.86,True
1627069783109.34,34.67,-32.71,-20.02,-72.27,106.94,52.730000000000004,159.67000000000002,True
1627069783113.25,-286.62,-30.76,-33.2,-103.52,390.14,63.96000000000001,454.09999999999997,True
1627069783117.15,-204.59,-40.53,-37.6,-86.91,291.5,78.13,369.63,True
1627069783121.06,135.25,-36.13,-13.67,-48.83,184.07999999999998,49.800000000000004,233.87999999999997,True
1627069783124.96,116.7,-33.69,-12.21,-62.5,179.2,45.9,225.1,True
1627069783128.87,-236.82,-41.99,-35.64,-93.75,330.57,77.63,408.2,True
1627069783132.78,-279.79,-40.04,-34.18,-92.29,372.08000000000004,74.22,446.30000000000007,True
1627069783136.68,65.92,-32.23,-20.51,-70.8,136.72,52.739999999999995,189.45999999999998,True
1627069783140.59,166.5,-29.79,-15.63,-72.75,239.25,45.42,284.67,True
1627069783144.5,-172.36,-43.46,-20.51,-100.59,272.95000000000005,63.97,336.92,True
1627069783148.4,-343.75,-55.66,-31.74,-110.84,454.59000000000003,87.39999999999999,541.99,True
1627069783152.31,-39.06,-47.85,-30.27,-73.73,112.79,78.12,190.91000000000003,True
1627069783156.21,187.5,-42.97,-22.46,-58.11,245.61,65.43,311.04,True
1627069783160.12,-57.62,-45.9,-32.23,-88.38,146.0,78.13,224.13,True
1627069783164.03,-326.66,-46.39,-35.64,-99.61,426.27000000000004,82.03,508.3,True
1627069783167.93,-137.7,-36.62,-24.41,-84.47,222.17,61.03,283.2,True
1627069783171.84,172.36,-31.25,-19.04,-74.22,246.58,50.29,296.87000000000006,True
1627069783175.75,38.09,-41.99,-33.69,-92.77,130.86,75.68,206.54000000000002,True
1627069783179.65,-298.34,-42.97,-44.92,-102.54,400.88,87.89,488.77000000000004,True
1627069783183.56,-242.68,-29.79,-38.57,-83.98,326.66,68.36,395.02000000000004,True
1627069783187.46,105.47,-25.39,-24.9,-70.31,175.78,50.29,226.07000000000002,True
1627069783191.37,126.46,-28.81,-25.39,-66.41,192.87,54.2,247.07,True
1627069783195.28,-211.43,-29.3,-34.67,-84.47,295.9,63.97,359.87,True
1627069783199.18,-283.2,-29.79,-35.16,-89.36,372.56,64.94999999999999,437.51,True
1627069783203.09,56.15,-26.37,-30.76,-64.94,121.09,57.13,178.22,True
1627069783207.0,187.01,-41.02,-32.71,-48.83,235.83999999999997,73.73,309.56999999999994,True
1627069783210.9,-118.65,-34.67,-28.32,-67.87,186.52,62.99,249.51,True
1627069783214.81,-305.66,-21.97,-26.86,-83.98,389.64000000000004,48.83,438.47,True
1627069783218.71,-39.55,-28.81,-34.18,-68.85,108.39999999999999,62.989999999999995,171.39,True
1627069783222.62,213.38,-22.95,-37.6,-57.62,271.0,60.55,331.55,True
1627069783226.53,0.98,-18.55,-37.6,-74.22,75.2,56.150000000000006,131.35,True
1627069783230.43,-299.32,-34.67,-44.92,-95.7,395.02,79.59,474.61,True
1627069783234.34,-147.46,-41.02,-42.97,-74.22,221.68,83.99000000000001,305.66999999999996,True
1627069783238.25,181.15,-30.27,-34.18,-49.8,230.95,64.45,295.4,True
1627069783242.15,88.38,-35.16,-40.53,-73.24,161.62,75.69,237.31,True
1627069783246.06,-258.79,-51.27,-47.36,-97.17,355.96000000000004,98.63,454.59000000000003,True
1627069783249.96,-240.23,-50.29,-51.76,-75.68,315.90999999999997,102.05,417.96,True
1627069783253.87,104.0,-38.57,-46.88,-41.5,145.5,85.45,230.95,True
1627069783257.78,151.37,-32.23,-35.16,-57.13,208.5,67.38999999999999,275.89,True
1627069783261.68,-187.99,-41.5,-46.39,-76.66,264.65,87.89,352.53999999999996,True
1627069783265.59,-302.73,-48.34,-53.71,-71.78,374.51,102.05000000000001,476.56,True
1627069783269.5,17.09,-38.57,-35.16,-57.62,74.71,73.72999999999999,148.44,True
1627069783273.4,196.78,-29.3,-27.34,-61.04,257.82,56.64,314.46,True
1627069783277.31,-98.14,-36.13,-48.83,-90.33,188.47,84.96000000000001,273.43,True
1627069783281.21,-318.85,-45.41,-58.59,-98.63,417.48,104.0,521.48,True
1627069783285.12,-63.96,-40.04,-42.48,-76.17,140.13,82.52,222.64999999999998,True
1627069783289.03,204.59,-36.13,-40.53,-66.41,271.0,76.66,347.65999999999997,True
1627069783292.93,23.44,-46.39,-52.25,-86.91,110.35,98.64,208.99,True
1627069783296.84,-279.3,-55.18,-66.41,-89.36,368.66,121.59,490.25,True
1627069783300.75,-147.95,-42.97,-56.64,-55.18,203.13,99.61,302.74,True
1627069783304.65,188.96,-31.25,-41.5,-46.39,235.35000000000002,72.75,308.1,True
1627069783308.56,119.63,-32.23,-39.55,-76.66,196.29,71.78,268.07,True
1627069783312.46,-229.98,-32.23,-37.6,-96.68,326.65999999999997,69.83,396.49,True
1627069783316.37,-230.47,-27.34,-41.02,-71.29,301.76,68.36,370.11999999999995,True
1627069783320.28,126.95,-26.37,-35.64,-44.43,171.38,62.010000000000005,233.39,True
1627069783324.18,199.71,-36.62,-38.09,-39.55,239.26,74.71000000000001,313.97,True
1627069783328.09,-136.72,-40.53,-41.02,-60.55,197.26999999999998,81.55000000000001,278.82,True
1627069783332.0,-272.95,-38.57,-37.11,-69.34,342.28999999999996,75.68,417.96999999999997,True
1627069783335.9,31.25,-37.11,-33.69,-43.95,75.2,70.8,146.0,True
1627069783339.81,226.56,-36.13,-35.64,-39.55,266.11,71.77000000000001,337.88,True
1627069783343.71,-43.46,-40.53,-47.85,-47.85,91.31,88.38,179.69,True
1627069783347.62,-294.43,-34.67,-33.2,-64.94,359.37,67.87,427.24,True
1627069783351.53,-81.54,-27.34,-22.95,-70.31,151.85000000000002,50.29,202.14000000000001,True
1627069783355.43,202.64,-29.79,-27.83,-52.73,255.36999999999998,57.62,312.98999999999995,True
1627069783359.34,36.62,-36.13,-25.88,-71.78,108.4,62.010000000000005,170.41,True
1627069783363.25,-293.46,-40.53,-29.3,-102.05,395.51,69.83,465.34,True
1627069783367.15,-202.15,-41.5,-33.2,-89.84,291.99,74.7,366.69,True
1627069783371.06,138.67,-40.04,-29.3,-56.15,194.82,69.34,264.15999999999997,True
1627069783374.96,115.23,-35.16,-31.74,-71.29,186.52,66.89999999999999,253.42000000000002,True
1627069783378.87,-230.96,-34.18,-39.06,-107.91,338.87,73.24000000000001,412.11,True
1627069783382.78,-279.3,-39.06,-44.92,-104.0,383.3,83.98,467.28000000000003,True
1627069783386.68,67.87,-32.23,-41.02,-64.94,132.81,73.25,206.06,True
1627069783390.59,177.25,-24.41,-16.6,-61.52,238.77,41.010000000000005,279.78000000000003,True
1627069783394.5,-149.41,-30.27,-23.44,-98.63,248.04,53.71,301.75,True
1627069783398.4,-317.87,-36.62,-39.06,-111.82,429.69,75.68,505.37,True
1627069783402.31,-22.46,-32.23,-33.2,-92.77,115.22999999999999,65.43,180.65999999999997,True
1627069783406.21,207.52,-13.18,-25.88,-79.59,287.11,39.06,326.17,True
1627069783410.12,-41.02,-13.67,-34.67,-103.52,144.54,48.34,192.88,True
1627069783414.03,-312.5,-29.3,-49.32,-126.95,439.45,78.62,518.07,True
1627069783417.93,-119.63,-30.76,-41.02,-98.14,217.76999999999998,71.78,289.54999999999995,True
1627069783421.84,189.45,-26.37,-26.86,-70.8,260.25,53.230000000000004,313.48,True
1627069783425.75,59.57,-32.23,-40.53,-86.91,146.48,72.75999999999999,219.23999999999998,True
1627069783429.65,-271.0,-41.99,-61.52,-100.59,371.59000000000003,103.51,475.1,True
1627069783433.56,-210.94,-41.02,-69.34,-76.17,287.11,110.36000000000001,397.47,True
1627069783437.46,126.46,-29.79,-50.78,-67.38,193.83999999999997,80.57,274.40999999999997,True
1627069783441.37,136.23,-27.83,-39.06,-76.17,212.39999999999998,66.89,279.28999999999996,True
1627069783445.28,-208.5,-33.2,-47.85,-95.7,304.2,81.05000000000001,385.25,True
1627069783449.18,-276.37,-35.64,-42.97,-102.54,378.91,78.61,457.52,True
1627069783453.09,54.2,-27.83,-29.3,-80.08,134.28,57.129999999999995,191.41000000000003,True
1627069783457.0,195.8,-25.39,-30.76,-68.85,264.65,56.150000000000006,320.79999999999995,True
1627069783460.9,-112.3,-35.16,-43.95,-78.61,190.91,79.11,270.02,True
1627069783464.81,-318.36,-39.06,-42.48,-87.4,405.76,81.53999999999999,487.3,True
1627069783468.71,-41.99,-33.69,-27.83,-75.2,117.19,61.519999999999996,178.70999999999998,True
1627069783472.62,212.89,-28.32,-25.39,-56.15,269.03999999999996,53.71,322.74999999999994,True
1627069783476.53,-12.7,-38.09,-40.53,-65.43,78.13000000000001,78.62,156.75,True
1627069783480.43,-304.2,-39.55,-38.09,-84.47,388.66999999999996,77.64,466.30999999999995,True
1627069783484.34,-137.21,-29.79,-21.0,-67.38,204.59,50.79,255.38,True
1627069783488.25,189.94,-30.27,-18.07,-36.13,226.07,48.34,274.40999999999997,True
1627069783492.15,99.61,-34.18,-28.32,-42.48,142.09,62.5,204.59,True
1627069783496.06,-237.3,-30.27,-37.11,-80.57,317.87,67.38,385.25,True
1627069783499.96,-205.08,-28.32,-28.81,-68.36,273.44,57.129999999999995,330.57,True
1627069783503.87,146.97,-19.04,-15.14,-38.57,185.54,34.18,219.71999999999997,True
1627069783507.78,192.87,-12.7,-15.14,-48.34,241.21,27.84,269.05,True
1627069783511.68,-153.81,-28.81,-27.83,-74.22,228.03,56.64,284.66999999999996,True
1627069783515.59,-267.09,-38.09,-42.48,-85.94,353.03,80.57,433.6,True
1627069783519.5,55.66,-30.27,-41.99,-55.66,111.32,72.26,183.58,True
1627069783523.4,227.05,-24.41,-31.25,-34.18,261.23,55.66,316.89000000000004,True
1627069783527.31,-60.06,-24.9,-28.32,-58.11,118.17,53.22,171.39,True
1627069783531.21,-290.04,-27.34,-30.27,-76.17,366.21000000000004,57.61,423.82,True
1627069783535.12,-45.9,-33.69,-36.62,-61.04,106.94,70.31,177.25,True
1627069783539.03,231.45,-31.25,-33.2,-33.69,265.14,64.45,329.59,True
1627069783542.93,38.57,-20.02,-31.25,-44.43,83.0,51.269999999999996,134.26999999999998,True
1627069783546.84,-272.46,-30.27,-45.41,-58.59,331.04999999999995,75.67999999999999,406.7299999999999,True
1627069783550.75,-142.58,-40.53,-36.13,-46.88,189.46,76.66,266.12,True
1627069783554.65,194.82,-31.25,-18.07,-31.25,226.07,49.32,275.39,True
1627069783558.56,135.74,-25.39,-20.51,-49.32,185.06,45.900000000000006,230.95999999999998,True
1627069783562.46,-214.84,-27.83,-37.6,-81.05,295.89,65.43,361.32,True
1627069783566.37,-229.49,-28.32,-45.41,-69.34,298.83000000000004,73.72999999999999,372.56000000000006,True
1627069783570.28,119.63,-26.86,-27.83,-40.04,159.67,54.69,214.35999999999996,True
1627069783574.18,205.57,-24.41,-21.48,-43.46,249.03,45.89,294.92,True
1627069783578.09,-122.56,-26.37,-27.34,-65.43,187.99,53.71,241.70000000000002,True
1627069783582.0,-272.46,-33.2,-33.2,-61.04,333.5,66.4,399.9,True
1627069783585.9,34.18,-29.3,-20.02,-37.6,71.78,49.32,121.1,True
1627069783589.81,239.75,-21.48,-9.28,-47.36,287.11,30.759999999999998,317.87,True
1627069783593.71,-43.46,-23.93,-19.04,-77.64,121.1,42.97,164.07,True
1627069783597.62,-299.8,-27.83,-20.02,-93.75,393.55,47.849999999999994,441.4,True
